Day of Year (dec)	Total Rate[Hz]	M1 Total Rate[Hz]	M1-Vertical Rate[Hz]	M1-Inclined[Hz]
319.009328700000	135.895	63.425	34.893	28.532	
319.016273150000	136.797	64.165	35.067	29.098	
319.023217590000	136.142	63.442	35.033	28.408	
319.030162040000	136.657	63.627	34.810	28.817	
319.037106480000	136.957	63.557	35.095	28.462	
319.044050930000	136.552	63.567	35.062	28.505	
319.050995370000	136.485	63.967	34.680	29.287	
319.057939810000	136.813	63.235	35.080	28.155	
319.064884260000	136.973	63.853	34.848	29.005	
319.071828700000	134.963	63.960	35.250	28.710	
319.078773150000	135.555	64.413	35.455	28.958	
319.085717590000	135.485	64.443	35.443	29.000	
319.092662040000	137.230	64.250	35.140	29.110	
319.099606480000	136.675	64.077	35.175	28.902	
319.106550930000	136.227	63.982	35.122	28.860	
319.113495370000	137.145	63.593	35.117	28.477	
319.120439810000	137.048	63.785	35.103	28.682	
319.127395830000	89.469	41.985	23.151	18.834	
319.134340280000	136.428	64.952	35.722	29.230	
319.141284720000	136.843	64.158	35.293	28.865	
319.148229170000	136.532	63.507	34.930	28.577	
319.155173610000	136.387	64.437	35.528	28.908	
319.162118060000	136.148	64.298	35.243	29.055	
319.169062500000	136.178	64.047	34.907	29.140	
319.176006940000	136.552	64.113	35.347	28.767	
319.182951390000	136.200	64.042	35.093	28.948	
319.189895830000	136.980	65.193	36.060	29.133	
319.196840280000	136.727	64.525	35.283	29.242	
319.203784720000	135.985	63.973	35.300	28.673	
319.210729170000	136.212	64.257	35.685	28.572	
319.217673610000	136.115	64.828	35.633	29.195	
319.224618060000	137.073	64.908	35.842	29.067	
319.231562500000	135.800	63.922	35.177	28.745	
319.238506940000	136.488	64.738	35.858	28.880	
319.245451390000	136.977	64.443	35.210	29.233	
319.252395830000	90.427	42.708	23.513	19.195	
319.259340280000	135.983	63.933	35.047	28.887	
319.266284720000	135.892	64.305	35.602	28.703	
319.273229170000	136.660	64.725	35.742	28.983	
319.280173610000	137.552	64.322	35.378	28.943	
319.287118060000	136.885	64.205	35.527	28.678	
319.294062500000	136.492	63.952	35.037	28.915	
319.301006940000	136.707	64.008	35.575	28.433	
319.307951390000	136.805	64.860	35.627	29.233	
319.314895830000	137.495	64.340	35.532	28.808	
319.321840280000	136.988	64.615	35.605	29.010	
319.328784720000	137.198	64.102	35.142	28.960	
319.335729170000	137.247	64.383	35.280	29.103	
319.342673610000	137.352	64.865	35.430	29.435	
319.349618060000	137.133	64.587	35.500	29.087	
319.356562500000	137.713	64.792	35.450	29.342	
319.363506940000	137.028	65.585	35.795	29.790	
319.370451390000	136.787	64.348	35.587	28.762	
319.377395830000	90.852	42.383	23.533	18.850	
319.384340280000	136.417	64.787	35.382	29.405	
319.391284720000	137.440	65.293	35.912	29.382	
319.398229170000	136.112	64.218	35.280	28.938	
319.405173610000	137.515	65.103	35.880	29.223	
319.412118060000	137.395	65.515	35.948	29.567	
319.419062500000	147.933	64.192	35.305	28.887	
319.426006940000	136.402	64.633	35.613	29.020	
319.432951390000	138.368	65.370	35.953	29.417	
319.439895830000	137.367	64.400	35.440	28.960	
319.446840280000	136.727	63.740	35.155	28.585	
319.453784720000	137.970	64.747	35.200	29.547	
319.460729170000	137.083	64.598	35.570	29.028	
319.467673610000	136.577	65.097	35.863	29.233	
319.474618060000	137.103	65.408	35.980	29.428	
319.481562500000	136.877	64.790	35.888	28.902	
319.488506940000	137.213	65.180	35.850	29.330	
319.495451390000	136.728	64.582	35.413	29.168	
319.502395830000	90.907	42.828	23.410	19.418	
319.509340280000	137.147	65.318	36.117	29.202	
319.516284720000	136.713	64.128	35.522	28.607	
319.523229170000	159.245	63.480	34.882	28.598	
319.530173610000	141.423	64.405	35.838	28.567	
319.537118060000	136.687	64.455	35.143	29.312	
319.544062500000	136.625	64.760	35.927	28.833	
319.551006940000	137.528	65.245	35.730	29.515	
319.557951390000	135.820	64.678	35.453	29.225	
319.564895830000	136.223	65.573	35.883	29.690	
319.571840280000	136.260	65.255	35.507	29.748	
319.578784720000	136.592	65.177	35.863	29.313	
319.585729170000	137.392	65.668	36.138	29.530	
319.592673610000	136.188	65.598	35.887	29.712	
319.599618060000	135.413	65.275	35.748	29.527	
319.606562500000	135.063	65.662	35.870	29.792	
319.613506940000	135.693	65.528	35.805	29.723	
319.620451390000	136.387	66.392	36.345	30.047	
319.627395830000	90.363	43.652	23.923	19.728	
319.634340280000	137.568	67.040	36.788	30.252	
319.641284720000	136.272	65.992	36.218	29.773	
319.648229170000	136.395	65.237	35.727	29.510	
319.655173610000	135.783	65.360	36.012	29.348	
319.662118060000	135.130	65.190	35.673	29.517	
319.669062500000	134.877	65.288	35.795	29.493	
319.676006940000	137.030	66.547	36.495	30.052	
319.682951390000	135.380	65.393	35.905	29.488	
319.689895830000	136.283	66.153	36.147	30.007	
319.696840280000	135.572	65.453	35.863	29.590	
319.703784720000	135.557	65.613	35.877	29.737	
319.710729170000	135.922	65.547	36.115	29.432	
319.717673610000	137.052	66.453	36.557	29.897	
319.724618060000	136.297	65.662	35.763	29.898	
319.731562500000	136.378	66.122	36.353	29.768	
319.738506940000	135.388	65.155	35.802	29.353	
319.745451390000	136.070	66.172	36.387	29.785	
319.752407410000	89.498	43.118	23.453	19.666	
319.759351850000	135.722	66.313	36.107	30.207	
319.766296300000	135.753	66.043	35.883	30.160	
319.773240740000	135.170	65.995	36.307	29.688	
319.780185190000	135.157	65.823	36.048	29.775	
319.787129630000	134.855	65.882	36.190	29.692	
319.794074070000	134.942	65.708	36.087	29.622	
319.801006940000	134.457	65.781	36.072	29.710	
319.807951390000	134.583	65.617	35.963	29.653	
319.814895830000	134.952	65.928	36.053	29.875	
319.821840280000	134.550	65.302	35.503	29.798	
319.828784720000	135.180	65.547	35.827	29.720	
319.835729170000	135.108	65.035	35.625	29.410	
319.842673610000	134.738	65.282	35.903	29.378	
319.849618060000	134.808	65.280	35.525	29.755	
319.856562500000	135.030	64.810	35.457	29.353	
319.863506940000	135.055	65.062	36.028	29.033	
319.870451390000	135.898	64.980	35.650	29.330	
319.877395830000	90.087	43.065	23.697	19.368	
319.884340280000	135.727	65.462	35.692	29.770	
319.891284720000	134.562	65.693	36.015	29.678	
319.898229170000	135.130	65.347	35.620	29.727	
319.905173610000	135.720	66.245	35.952	30.293	
319.912118060000	135.328	65.268	35.602	29.667	
319.919062500000	136.460	65.498	35.958	29.540	
319.926006940000	135.922	64.703	35.542	29.162	
319.932951390000	135.927	65.293	35.652	29.642	
319.939895830000	135.155	64.988	35.795	29.193	
319.946840280000	135.507	65.357	35.732	29.625	
319.953784720000	135.598	65.938	36.220	29.718	
319.960729170000	136.072	65.648	35.838	29.810	
319.967673610000	135.618	65.315	35.955	29.360	
319.974618060000	135.838	65.318	35.893	29.425	
319.981562500000	135.740	65.375	35.545	29.830	
319.988506940000	134.518	65.140	35.407	29.733	
319.995451390000	134.062	64.990	35.587	29.403	
320.002395830000	88.765	43.208	23.672	19.537	
320.009340280000	135.187	65.592	35.815	29.777	
320.016284720000	135.242	65.673	35.793	29.880	
320.023229170000	136.148	66.168	36.445	29.723	
320.030173610000	135.573	65.230	35.575	29.655	
320.037118060000	134.267	65.397	35.840	29.557	
320.044062500000	134.128	65.492	35.912	29.580	
320.051006940000	135.603	66.475	36.267	30.208	
320.057951390000	135.123	65.482	35.578	29.903	
320.064895830000	134.590	65.453	35.923	29.530	
320.071840280000	134.667	66.237	36.032	30.205	
320.078784720000	135.023	66.090	35.945	30.145	
320.085729170000	134.835	66.172	36.048	30.123	
320.092673610000	134.127	65.630	35.852	29.778	
320.099618060000	134.155	66.532	36.145	30.387	
320.106562500000	134.088	66.642	36.070	30.572	
320.113506940000	134.385	66.803	36.520	30.283	
320.120451390000	133.955	66.200	36.065	30.135	
320.127395830000	88.732	43.667	23.757	19.910	
320.134340280000	135.185	66.630	36.475	30.155	
320.141284720000	135.430	66.598	36.115	30.483	
320.148229170000	134.255	66.437	36.260	30.177	
320.155173610000	135.010	66.285	36.200	30.085	
320.162118060000	134.950	66.777	36.388	30.388	
320.169062500000	134.840	66.543	36.027	30.517	
320.176006940000	134.525	66.538	36.223	30.315	
320.182951390000	134.905	67.100	36.373	30.727	
320.189895830000	134.482	66.733	36.290	30.443	
320.196840280000	134.837	67.285	36.465	30.820	
320.203784720000	134.082	66.367	36.172	30.195	
320.210729170000	134.618	66.388	36.200	30.188	
320.217673610000	133.572	66.722	36.308	30.413	
320.224618060000	134.550	66.682	36.367	30.315	
320.231562500000	134.670	66.708	36.467	30.242	
320.238506940000	135.170	66.752	36.263	30.488	
320.245451390000	135.182	66.475	36.132	30.343	
320.252395830000	89.842	44.313	23.960	20.353	
320.259340280000	134.518	66.772	36.383	30.388	
320.266284720000	134.818	66.843	36.285	30.558	
320.273229170000	134.857	66.762	36.432	30.330	
320.280173610000	134.172	67.090	36.223	30.867	
320.287118060000	134.258	66.172	36.178	29.993	
320.294062500000	133.978	66.683	36.393	30.290	
320.301006940000	134.483	67.362	36.267	31.095	
320.307951390000	134.417	66.933	36.395	30.538	
320.314895830000	134.347	66.722	36.007	30.715	
320.321840280000	135.648	65.855	35.585	30.270	
320.328784720000	134.897	67.147	36.453	30.693	
320.335729170000	134.753	67.197	36.247	30.950	
320.342673610000	135.142	66.597	36.155	30.442	
320.349618060000	134.982	67.628	36.862	30.767	
320.356562500000	135.828	67.453	36.720	30.733	
320.363506940000	134.517	66.882	36.348	30.533	
320.370451390000	135.370	66.730	36.393	30.337	
320.377395830000	89.778	44.773	24.555	20.218	
320.384340280000	134.330	66.503	36.352	30.152	
320.391284720000	134.790	66.777	36.338	30.438	
320.398229170000	134.940	67.063	36.247	30.817	
320.405173610000	135.942	67.140	36.552	30.588	
320.412118060000	134.647	66.523	36.435	30.088	
320.419062500000	134.520	65.947	35.958	29.988	
320.426006940000	135.275	65.933	35.737	30.197	
320.432951390000	135.075	66.805	36.098	30.707	
320.439895830000	134.867	67.150	36.657	30.493	
320.446840280000	134.812	67.145	36.532	30.613	
320.453784720000	135.775	66.993	36.503	30.490	
320.460729170000	134.692	65.968	35.807	30.162	
320.467673610000	135.328	67.010	36.498	30.512	
320.474618060000	135.060	66.932	36.502	30.430	
320.481562500000	134.873	66.612	36.450	30.162	
320.488506940000	134.142	66.915	36.347	30.568	
320.495451390000	133.748	66.193	35.963	30.230	
320.502418980000	88.663	43.894	23.681	20.213	
320.509363430000	134.338	67.020	36.423	30.597	
320.516307870000	134.167	67.337	36.662	30.675	
320.523252310000	134.803	67.548	36.895	30.653	
320.530196760000	133.000	67.205	36.387	30.818	
320.537141200000	134.417	68.037	36.793	31.243	
320.544085650000	133.553	67.355	36.170	31.185	
320.551030090000	134.862	67.195	36.527	30.668	
320.557974540000	134.420	67.243	36.262	30.982	
320.564918980000	133.782	67.350	36.610	30.740	
320.571863430000	133.220	67.377	36.313	31.063	
320.578807870000	134.142	67.672	36.577	31.095	
320.585752310000	134.365	67.413	36.242	31.172	
320.592696760000	134.093	66.928	36.370	30.558	
320.599641200000	133.777	66.587	35.890	30.697	
320.606585650000	133.513	66.913	36.555	30.358	
320.613530090000	133.418	67.435	36.383	31.052	
320.620474540000	134.863	67.512	36.482	31.030	
320.627418980000	88.523	44.763	24.427	20.337	
320.634363430000	134.618	67.053	36.475	30.578	
320.641307870000	133.803	67.643	36.588	31.055	
320.648252310000	133.537	68.050	36.943	31.107	
320.655196760000	134.617	67.562	36.840	30.722	
320.662141200000	135.143	67.472	36.827	30.645	
320.669085650000	135.248	67.270	36.638	30.632	
320.676030090000	134.808	66.753	36.128	30.625	
320.682974540000	133.723	67.227	36.545	30.682	
320.689918980000	134.142	67.702	36.930	30.772	
320.696863430000	134.807	66.945	36.360	30.585	
320.703807870000	133.630	67.327	36.662	30.665	
320.710752310000	134.165	67.895	36.980	30.915	
320.717696760000	134.607	67.405	36.637	30.768	
320.724641200000	135.025	68.303	36.862	31.442	
320.731585650000	133.643	67.730	36.755	30.975	
320.738530090000	133.895	68.138	36.753	31.385	
320.745474540000	133.622	67.205	36.673	30.532	
320.752418980000	88.640	44.017	23.735	20.282	
320.759363430000	133.555	67.695	36.720	30.975	
320.766307870000	134.900	67.207	36.452	30.755	
320.773252310000	135.147	67.288	36.482	30.807	
320.780196760000	133.752	67.398	36.380	31.018	
320.787141200000	134.843	67.628	36.707	30.922	
320.794085650000	134.342	67.617	36.917	30.700	
320.801030090000	133.183	67.687	36.513	31.173	
320.807974540000	134.685	67.923	36.887	31.037	
320.814918980000	134.158	66.873	36.402	30.472	
320.821863430000	134.277	66.877	35.995	30.882	
320.828807870000	135.412	67.365	36.307	31.058	
320.835752310000	135.327	67.567	36.585	30.982	
320.842696760000	134.163	67.338	36.712	30.627	
320.849641200000	133.558	68.347	36.558	31.788	
320.856585650000	132.617	68.185	36.605	31.580	
320.863530090000	133.505	68.282	36.772	31.510	
320.870474540000	133.057	67.890	36.817	31.073	
320.877418980000	87.535	44.388	23.863	20.525	
320.884363430000	133.815	68.145	36.977	31.168	
320.891307870000	132.723	68.503	36.885	31.618	
320.898252310000	132.068	68.608	37.033	31.575	
320.905196760000	131.417	68.490	37.048	31.442	
320.912141200000	132.333	68.007	36.620	31.387	
320.919085650000	133.418	68.200	36.650	31.550	
320.926030090000	132.035	68.518	36.552	31.967	
320.932974540000	132.150	68.277	36.407	31.870	
320.939918980000	132.232	68.483	37.168	31.315	
320.946863430000	132.040	68.532	36.920	31.612	
320.953807870000	132.083	68.153	36.690	31.463	
320.960752310000	133.292	68.550	36.940	31.610	
320.967696760000	133.390	68.752	37.040	31.712	
320.974641200000	131.405	68.600	37.037	31.563	
320.981585650000	131.472	68.183	36.558	31.625	
320.988530090000	133.620	68.275	36.598	31.677	
320.995474540000	133.695	68.730	37.217	31.513	
321.002418980000	86.852	44.692	24.000	20.692	
321.009363430000	133.500	68.495	36.882	31.613	
321.016307870000	131.842	67.832	36.455	31.377	
321.023252310000	132.523	68.605	36.873	31.732	
321.030196760000	133.405	68.340	36.917	31.423	
321.037141200000	132.495	68.000	36.625	31.375	
321.044085650000	132.795	68.780	36.910	31.870	
321.051030090000	132.555	67.908	36.705	31.203	
321.057974540000	132.857	68.263	36.750	31.513	
321.064918980000	132.638	68.578	36.880	31.698	
321.071863430000	133.150	68.272	36.900	31.372	
321.078807870000	131.247	67.932	36.555	31.377	
321.085752310000	132.192	68.327	36.872	31.455	
321.092696760000	131.693	67.595	36.548	31.047	
321.099641200000	132.053	68.392	36.945	31.447	
321.106585650000	132.357	68.755	37.155	31.600	
321.113530090000	131.767	67.488	36.115	31.373	
321.120474540000	132.723	68.278	36.827	31.452	
321.127418980000	87.648	44.800	24.178	20.622	
321.134363430000	131.988	67.373	36.292	31.082	
321.141307870000	132.245	67.990	36.540	31.450	
321.148252310000	132.418	68.842	37.158	31.683	
321.155196760000	132.558	67.868	36.642	31.227	
321.162141200000	132.600	68.507	36.878	31.628	
321.169085650000	132.677	68.047	36.972	31.075	
321.176030090000	131.282	68.365	36.793	31.572	
321.182974540000	132.010	68.003	36.682	31.322	
321.189918980000	132.648	68.115	36.743	31.372	
321.196863430000	133.420	68.453	36.887	31.567	
321.203807870000	132.343	67.850	36.582	31.268	
321.210752310000	132.403	67.858	36.582	31.277	
321.217696760000	132.407	68.103	36.562	31.542	
321.224641200000	132.097	67.745	36.635	31.110	
321.231585650000	131.982	67.495	36.527	30.968	
321.238530090000	132.510	67.900	36.837	31.063	
321.245474540000	131.938	67.430	36.395	31.035	
321.252418980000	87.533	44.792	24.135	20.657	
321.259363430000	132.450	67.900	36.465	31.435	
321.266307870000	132.835	66.958	36.012	30.947	
321.273252310000	133.223	67.585	36.465	31.120	
321.280196760000	132.317	68.112	36.852	31.260	
321.287141200000	133.010	67.587	36.760	30.827	
321.294085650000	132.712	66.945	36.377	30.568	
321.301030090000	133.378	67.325	36.255	31.070	
321.307974540000	133.538	66.837	36.098	30.738	
321.314918980000	132.625	67.147	36.415	30.732	
321.321863430000	134.115	67.935	36.862	31.073	
321.328807870000	132.967	67.340	36.277	31.063	
321.335752310000	132.677	67.118	36.230	30.888	
321.342696760000	131.938	67.017	36.332	30.685	
321.349641200000	133.007	67.603	36.948	30.655	
321.356585650000	132.893	67.797	36.753	31.043	
321.363530090000	132.890	67.907	36.863	31.043	
321.370474540000	132.037	66.860	36.162	30.698	
321.377418980000	88.005	44.748	24.302	20.447	
321.384363430000	132.862	67.468	36.557	30.912	
321.391307870000	131.642	66.808	36.183	30.625	
321.398252310000	131.952	66.572	36.253	30.318	
321.405196760000	133.125	66.918	36.415	30.503	
321.412141200000	132.398	66.455	36.283	30.172	
321.419085650000	132.270	66.442	36.117	30.325	
321.426030090000	133.603	66.937	36.342	30.595	
321.432974540000	132.272	65.910	35.832	30.078	
321.439918980000	132.350	66.522	36.083	30.438	
321.446863430000	133.347	66.802	36.307	30.495	
321.453807870000	132.012	66.175	35.738	30.437	
321.460752310000	132.317	65.972	35.747	30.225	
321.467696760000	132.295	66.497	35.787	30.710	
321.474641200000	131.830	66.958	35.888	31.070	
321.481585650000	131.398	66.983	35.720	31.263	
321.488530090000	132.748	66.740	36.272	30.468	
321.495474540000	131.892	66.633	36.073	30.560	
321.502418980000	86.195	43.280	23.643	19.637	
321.509363430000	132.625	66.140	35.793	30.347	
321.516307870000	132.818	66.505	36.163	30.342	
321.523252310000	132.998	66.975	36.473	30.502	
321.530196760000	132.505	66.458	35.905	30.553	
321.537141200000	130.672	66.153	35.618	30.535	
321.544085650000	131.265	66.483	36.200	30.283	
321.551030090000	132.347	66.382	36.055	30.327	
321.557974540000	132.553	66.362	36.002	30.360	
321.564918980000	132.997	66.280	35.933	30.347	
321.571863430000	131.970	66.272	35.622	30.650	
321.578807870000	132.183	66.128	35.843	30.285	
321.585752310000	133.172	67.237	36.345	30.892	
321.592696760000	132.350	66.193	35.615	30.578	
321.599641200000	131.933	65.953	35.502	30.452	
321.606585650000	131.847	66.013	35.663	30.350	
321.613530090000	131.880	66.195	35.865	30.330	
321.620474540000	132.123	66.038	35.702	30.337	
321.627418980000	86.137	43.305	23.430	19.875	
321.634363430000	132.188	65.758	35.778	29.980	
321.641307870000	131.660	66.352	36.072	30.280	
321.648252310000	131.185	65.928	35.715	30.213	
321.655196760000	131.373	66.555	35.873	30.682	
321.662141200000	131.555	66.062	35.722	30.340	
321.669085650000	132.082	66.258	35.885	30.373	
321.676030090000	131.743	66.107	35.783	30.323	
321.682974540000	130.807	66.292	35.620	30.672	
321.689918980000	131.040	66.185	35.783	30.402	
321.696863430000	131.925	66.135	36.028	30.107	
321.703807870000	131.188	66.552	35.925	30.627	
321.710752310000	131.080	65.797	35.915	29.882	
321.717696760000	131.035	65.225	35.392	29.833	
321.724641200000	131.392	65.277	35.550	29.727	
321.731585650000	130.715	65.448	35.290	30.158	
321.738530090000	129.895	66.287	35.657	30.630	
321.745474540000	131.080	66.253	35.697	30.557	
321.752418980000	85.213	43.185	23.237	19.948	
321.759363430000	131.072	65.550	35.378	30.172	
321.766307870000	132.150	65.830	35.580	30.250	
321.773252310000	131.327	65.283	35.698	29.585	
321.780196760000	131.343	65.678	35.572	30.107	
321.787141200000	131.777	66.017	35.790	30.227	
321.794085650000	130.773	65.375	35.725	29.650	
321.801030090000	131.485	64.712	34.872	29.840	
321.807974540000	131.093	65.447	35.155	30.292	
321.814918980000	130.978	65.663	35.827	29.837	
321.821863430000	131.600	64.987	35.662	29.325	
321.828807870000	131.897	64.937	35.363	29.573	
321.835752310000	131.062	64.745	35.172	29.573	
321.842696760000	131.280	65.105	35.348	29.757	
321.849641200000	131.560	65.140	35.173	29.967	
321.856585650000	131.785	65.293	35.652	29.642	
321.863530090000	131.567	64.932	35.473	29.458	
321.870474540000	131.942	65.240	35.493	29.747	
321.877418980000	86.003	42.577	23.170	19.407	
321.884363430000	132.803	65.523	35.867	29.657	
321.891307870000	130.412	64.793	35.212	29.582	
321.898252310000	131.047	65.408	35.315	30.093	
321.905196760000	130.228	64.647	35.080	29.567	
321.912141200000	131.025	64.968	35.150	29.818	
321.919085650000	130.472	64.998	35.237	29.762	
321.926030090000	131.728	64.832	35.137	29.695	
321.932974540000	131.208	65.095	35.732	29.363	
321.939918980000	131.532	65.150	35.332	29.818	
321.946863430000	131.927	64.462	35.082	29.380	
321.953807870000	132.018	65.368	35.670	29.698	
321.960752310000	130.922	65.028	35.378	29.650	
321.967696760000	131.512	65.340	35.135	30.205	
321.974641200000	130.598	65.017	35.133	29.883	
321.981585650000	130.378	64.993	35.193	29.800	
321.988530090000	130.518	65.113	35.372	29.742	
321.995474540000	130.980	64.692	35.288	29.403	
322.002418980000	85.635	42.638	23.127	19.512	
322.009363430000	130.587	65.040	35.388	29.652	
322.016307870000	130.287	64.510	34.865	29.645	
322.023252310000	130.233	64.632	35.155	29.477	
322.030196760000	130.822	65.135	35.320	29.815	
322.037141200000	130.458	64.677	35.317	29.360	
322.044085650000	129.935	64.695	35.242	29.453	
322.051030090000	129.073	63.743	34.712	29.032	
322.057974540000	130.798	64.645	35.132	29.513	
322.064918980000	130.570	64.752	34.973	29.778	
322.071863430000	130.592	64.825	35.523	29.302	
322.078807870000	130.638	64.980	35.232	29.748	
322.085752310000	130.800	65.013	35.270	29.743	
322.092696760000	130.690	65.120	35.297	29.823	
322.099641200000	130.378	65.213	35.265	29.948	
322.106585650000	129.748	64.830	35.090	29.740	
322.113530090000	130.470	64.445	35.065	29.380	
322.120474540000	129.922	64.272	34.775	29.497	
322.127418980000	87.087	43.390	23.413	19.977	
322.134363430000	130.695	64.192	34.863	29.328	
322.141307870000	129.295	64.103	34.503	29.600	
322.148252310000	130.185	64.535	35.272	29.263	
322.155196760000	129.742	64.222	35.145	29.077	
322.162141200000	130.425	65.037	35.387	29.650	
322.169085650000	130.058	64.912	35.335	29.577	
322.176030090000	130.242	64.493	35.003	29.490	
322.182974540000	130.037	64.148	34.988	29.160	
322.189918980000	130.132	64.490	35.017	29.473	
322.196863430000	129.595	63.887	34.440	29.447	
322.203807870000	129.768	64.083	34.727	29.357	
322.210752310000	130.525	63.955	34.788	29.167	
322.217696760000	130.312	64.432	35.182	29.250	
322.224641200000	130.053	64.647	34.833	29.813	
322.231585650000	129.492	63.945	34.780	29.165	
322.238530090000	64.027	31.742	17.162	14.580	
322.245474540000	130.700	64.588	35.108	29.480	
322.252418980000	86.108	42.688	23.413	19.275	
322.259363430000	129.932	64.497	34.993	29.503	
322.266307870000	130.818	64.342	34.797	29.545	
322.273252310000	130.405	63.973	34.735	29.238	
322.280196760000	130.305	64.267	35.012	29.255	
322.287141200000	129.940	63.833	34.468	29.365	
322.294085650000	131.308	64.017	34.853	29.163	
322.301030090000	130.318	63.215	34.298	28.917	
322.307974540000	131.298	64.183	34.740	29.443	
322.314918980000	130.627	63.622	34.663	28.958	
322.321863430000	130.518	63.673	34.828	28.845	
322.328807870000	129.112	64.240	35.033	29.207	
322.335752310000	129.982	64.637	35.023	29.613	
322.342696760000	130.250	63.065	34.262	28.803	
322.349641200000	130.443	63.620	34.938	28.682	
322.356585650000	129.465	63.022	34.138	28.883	
322.363530090000	130.823	64.193	35.047	29.147	
322.370474540000	131.208	64.408	35.090	29.318	
322.377418980000	86.177	41.935	22.760	19.175	
322.384363430000	129.418	63.673	34.523	29.150	
322.391307870000	129.795	64.090	34.895	29.195	
322.398252310000	129.510	63.855	34.745	29.110	
322.405196760000	128.988	63.498	34.262	29.237	
322.412141200000	129.837	64.233	35.057	29.177	
322.419085650000	128.980	63.257	34.688	28.568	
322.426030090000	128.827	63.462	34.393	29.068	
322.432974540000	128.343	63.105	34.333	28.772	
322.439918980000	128.213	63.208	34.090	29.118	
322.446863430000	129.910	63.203	34.465	28.738	
322.453807870000	130.197	63.533	34.810	28.723	
322.460752310000	129.802	63.878	34.770	29.108	
322.467696760000	128.945	63.308	34.378	28.930	
322.474641200000	130.067	63.622	34.500	29.122	
322.481585650000	129.562	63.275	34.633	28.642	
322.488530090000	129.615	63.332	34.323	29.008	
322.495474540000	128.740	62.693	34.132	28.562	
322.502418980000	85.498	41.658	22.588	19.070	
322.509363430000	129.187	63.407	34.577	28.830	
322.516307870000	128.950	63.130	34.025	29.105	
322.523252310000	129.182	63.153	34.060	29.093	
322.530196760000	129.100	62.732	34.243	28.488	
322.537141200000	128.905	62.618	33.763	28.855	
322.544085650000	128.830	63.165	34.207	28.958	
322.551030090000	129.678	63.380	34.630	28.750	
322.557974540000	129.237	63.030	34.302	28.728	
322.564918980000	128.788	63.285	34.652	28.633	
322.571863430000	128.282	63.172	34.528	28.643	
322.578807870000	127.753	63.022	34.343	28.678	
322.585752310000	129.138	63.612	34.662	28.950	
322.592696760000	127.922	62.823	34.287	28.537	
322.599641200000	128.407	63.250	34.442	28.808	
322.606585650000	127.327	62.682	34.097	28.585	
322.613530090000	127.328	63.075	34.505	28.570	
322.620474540000	127.380	62.892	34.115	28.777	
322.627418980000	85.813	42.340	23.113	19.227	
322.634363430000	128.800	62.682	33.993	28.688	
322.641307870000	127.762	62.042	33.613	28.428	
322.648252310000	128.425	62.573	34.020	28.553	
322.655196760000	128.623	62.923	34.387	28.537	
322.662141200000	128.178	62.898	34.017	28.882	
322.669085650000	128.728	62.702	34.017	28.685	
322.676030090000	128.697	62.982	34.437	28.545	
322.682974540000	128.397	62.652	34.252	28.400	
322.689918980000	128.508	61.872	33.747	28.125	
322.696863430000	130.833	57.645	31.960	25.685	
322.703807870000	131.087	61.445	33.625	27.820	
322.710752310000	128.068	61.650	33.838	27.812	
322.717696760000	127.267	61.983	34.028	27.955	
322.724641200000	128.188	62.983	34.413	28.570	
322.731585650000	128.638	62.923	34.145	28.778	
322.738530090000	128.313	62.593	34.212	28.382	
322.745474540000	128.098	62.265	34.183	28.082	
322.752418980000	85.198	41.663	22.682	18.982	
322.759363430000	127.872	62.737	34.578	28.158	
322.766307870000	128.020	62.180	34.060	28.120	
322.773252310000	127.182	62.178	33.825	28.353	
322.780196760000	128.605	62.662	34.103	28.558	
322.787141200000	128.968	62.718	34.255	28.463	
322.794085650000	128.282	62.262	33.797	28.465	
322.801030090000	128.507	61.352	33.565	27.787	
322.807974540000	127.950	61.677	33.585	28.092	
322.814918980000	128.560	62.005	33.915	28.090	
322.821863430000	128.658	62.202	34.220	27.982	
322.828807870000	128.572	62.168	33.673	28.495	
322.835752310000	127.080	62.232	33.838	28.393	
322.842696760000	127.865	62.787	34.197	28.590	
322.849641200000	127.892	61.522	33.360	28.162	
322.856585650000	128.812	61.417	33.597	27.820	
322.863530090000	128.860	61.645	33.592	28.053	
322.870474540000	129.242	62.033	33.835	28.198	
322.877418980000	84.322	40.363	21.988	18.375	
322.884363430000	129.048	60.903	33.240	27.663	
322.891307870000	128.495	61.605	33.743	27.862	
322.898252310000	128.077	62.118	34.045	28.073	
322.905196760000	129.150	61.518	33.785	27.733	
322.912141200000	129.427	61.580	33.803	27.777	
322.919085650000	129.080	61.982	34.038	27.943	
322.926030090000	128.303	61.220	33.498	27.722	
322.932974540000	128.960	61.965	33.975	27.990	
322.939918980000	128.433	61.363	33.997	27.367	
322.946863430000	129.348	61.082	33.392	27.690	
322.953807870000	128.115	61.658	33.512	28.147	
322.960752310000	128.218	61.472	33.597	27.875	
322.967696760000	128.943	61.623	33.565	28.058	
322.974641200000	129.138	61.762	34.090	27.672	
322.981585650000	128.490	60.983	33.225	27.758	
322.988530090000	128.025	60.742	33.525	27.217	
322.995474540000	127.595	60.703	33.067	27.637	
323.002418980000	84.622	40.032	22.088	17.943	
323.009363430000	128.003	60.853	33.123	27.730	
323.016307870000	128.205	60.695	33.140	27.555	
323.023252310000	128.185	60.955	33.827	27.128	
323.030196760000	128.815	61.262	33.365	27.897	
323.037141200000	127.502	60.867	33.648	27.218	
323.044085650000	127.528	61.192	33.708	27.483	
323.051030090000	127.988	61.072	33.585	27.487	
323.057974540000	128.043	61.070	33.535	27.535	
323.064918980000	128.483	61.375	33.925	27.450	
323.071863430000	128.060	61.033	33.165	27.868	
323.078807870000	128.598	61.118	33.305	27.813	
323.085752310000	128.888	61.588	33.987	27.602	
323.092696760000	127.465	60.537	32.777	27.760	
323.099641200000	128.660	61.338	33.490	27.848	
323.106585650000	128.775	61.313	33.717	27.597	
323.113530090000	128.525	61.403	33.867	27.537	
323.120474540000	127.835	60.802	33.265	27.537	
323.127418980000	84.465	39.922	22.098	17.823	
323.134363430000	128.485	60.882	33.048	27.833	
323.141307870000	127.698	60.382	32.932	27.450	
323.148252310000	127.993	60.665	33.197	27.468	
323.155196760000	128.562	61.022	33.155	27.867	
323.162141200000	128.122	60.843	33.493	27.350	
323.169085650000	127.925	61.032	33.513	27.518	
323.176030090000	127.813	61.338	33.607	27.732	
323.182974540000	128.003	60.797	33.235	27.562	
323.189918980000	128.052	60.717	33.428	27.288	
323.196863430000	128.457	61.077	33.365	27.712	
323.203807870000	127.868	61.083	33.287	27.797	
323.210752310000	128.078	60.690	33.218	27.472	
323.217696760000	127.555	60.632	33.257	27.375	
323.224641200000	128.552	61.277	33.263	28.013	
323.231585650000	128.035	60.583	33.417	27.167	
323.238530090000	127.195	60.477	33.267	27.210	
323.245474540000	128.552	61.105	33.670	27.435	
323.252418980000	84.070	40.015	21.978	18.037	
323.259363430000	127.315	60.928	33.063	27.865	
323.266307870000	127.512	60.812	33.212	27.600	
323.273252310000	127.263	60.892	32.977	27.915	
323.280196760000	127.310	61.035	33.458	27.577	
323.287141200000	127.488	60.177	32.827	27.350	
323.294085650000	127.445	60.282	33.160	27.122	
323.301030090000	127.907	60.505	33.205	27.300	
323.307974540000	127.963	60.567	33.192	27.375	
323.314918980000	127.632	60.485	33.460	27.025	
323.321863430000	126.802	61.090	33.427	27.663	
323.328807870000	126.638	60.352	33.125	27.227	
323.335752310000	127.082	60.512	33.440	27.072	
323.342696760000	127.553	60.657	33.080	27.577	
323.349641200000	127.658	60.758	33.270	27.488	
323.356585650000	127.587	60.755	33.578	27.177	
323.363530090000	127.365	60.835	33.082	27.753	
323.370474540000	127.953	61.177	33.520	27.657	
323.377465280000	82.838	39.366	21.530	17.836	
323.384409720000	127.232	60.937	33.342	27.595	
323.391354170000	127.558	60.827	33.165	27.662	
323.398298610000	126.673	60.142	32.842	27.300	
323.405243060000	127.305	60.543	33.038	27.505	
323.412187500000	126.862	60.560	33.212	27.348	
323.419131940000	126.005	59.980	32.958	27.022	
323.426076390000	127.450	59.575	32.923	26.652	
323.433020830000	126.320	60.230	32.920	27.310	
323.439965280000	126.427	60.270	32.965	27.305	
323.446909720000	126.688	60.413	32.773	27.640	
323.453854170000	126.887	59.615	32.653	26.962	
323.460798610000	126.852	59.345	32.738	26.607	
323.467743060000	126.655	59.543	32.730	26.813	
323.474687500000	127.495	60.895	33.453	27.442	
323.481631940000	126.208	59.862	32.868	26.993	
323.488576390000	126.543	59.870	32.583	27.287	
323.495520830000	126.883	60.015	32.813	27.202	
323.502465280000	83.098	39.470	21.450	18.020	
323.509409720000	127.392	59.782	32.642	27.140	
323.516354170000	127.502	59.933	32.822	27.112	
323.523298610000	126.717	59.733	32.865	26.868	
323.530243060000	127.423	60.070	32.800	27.270	
323.537187500000	126.752	60.630	33.217	27.413	
323.544131940000	126.803	60.240	32.895	27.345	
323.551076390000	127.165	59.473	32.563	26.910	
323.558020830000	127.480	59.300	32.710	26.590	
323.564965280000	127.313	59.058	32.277	26.782	
323.571909720000	126.250	59.957	32.660	27.297	
323.578854170000	126.717	60.185	32.977	27.208	
323.585798610000	125.838	59.458	32.437	27.022	
323.592743060000	127.222	60.398	33.013	27.385	
323.599687500000	126.960	61.022	33.160	27.862	
323.606631940000	126.095	60.510	32.758	27.752	
323.613576390000	126.308	59.542	32.562	26.980	
323.620520830000	127.007	60.207	32.948	27.258	
323.627465280000	82.885	39.043	21.457	17.587	
323.634409720000	127.930	60.277	32.723	27.553	
323.641354170000	126.443	59.660	32.743	26.917	
323.648298610000	126.695	59.547	32.615	26.932	
323.655243060000	126.548	60.028	32.852	27.177	
323.662187500000	126.817	60.022	33.135	26.887	
323.669131940000	126.140	59.817	32.753	27.063	
323.676076390000	126.455	59.362	32.708	26.653	
323.683020830000	126.167	59.703	32.848	26.855	
323.689965280000	126.175	59.732	32.803	26.928	
323.696909720000	125.707	59.720	32.873	26.847	
323.703854170000	126.735	60.292	32.785	27.507	
323.710798610000	125.997	59.847	32.775	27.072	
323.717743060000	126.197	59.790	32.770	27.020	
323.724687500000	126.127	60.143	32.972	27.172	
323.731631940000	126.265	60.080	32.915	27.165	
323.738576390000	126.552	59.838	32.860	26.978	
323.745520830000	126.647	59.540	32.610	26.930	
323.752465280000	83.410	39.630	21.952	17.678	
323.759409720000	126.328	59.518	32.402	27.117	
323.766354170000	126.308	59.762	32.953	26.808	
323.773298610000	125.435	59.413	32.650	26.763	
323.780243060000	125.477	59.755	32.850	26.905	
323.787187500000	125.820	59.523	32.405	27.118	
323.794131940000	126.447	59.860	32.777	27.083	
323.801076390000	126.078	59.948	32.742	27.207	
323.808020830000	125.700	59.910	32.730	27.180	
323.814965280000	125.380	59.745	32.553	27.192	
323.821909720000	124.970	59.367	32.128	27.238	
323.828854170000	125.245	59.150	32.622	26.528	
323.835798610000	125.938	59.238	32.542	26.697	
323.842743060000	125.913	59.403	32.427	26.977	
323.849687500000	126.307	59.790	32.928	26.862	
323.856631940000	126.078	59.115	32.425	26.690	
323.863576390000	125.638	59.097	32.352	26.745	
323.870520830000	126.202	59.565	32.550	27.015	
323.877465280000	83.188	39.287	21.495	17.792	
323.884409720000	126.378	59.378	32.532	26.847	
323.891354170000	125.658	59.492	32.593	26.898	
323.898298610000	125.512	59.340	32.467	26.873	
323.905243060000	125.118	59.525	32.923	26.602	
323.912187500000	125.830	59.313	32.502	26.812	
323.919131940000	125.748	59.253	32.288	26.965	
323.926076390000	125.018	59.213	32.675	26.538	
323.933020830000	125.148	59.593	32.657	26.937	
323.939965280000	125.477	59.658	32.793	26.865	
323.946909720000	125.208	59.605	32.678	26.927	
323.953854170000	126.298	59.325	32.230	27.095	
323.960798610000	126.187	58.942	32.315	26.627	
323.967743060000	125.967	59.313	32.498	26.815	
323.974687500000	126.078	59.860	32.842	27.018	
323.981631940000	124.875	59.483	32.433	27.050	
323.988576390000	125.172	59.803	32.702	27.102	
323.995520830000	125.730	59.270	32.530	26.740	
324.002465280000	82.697	38.782	21.097	17.685	
324.009409720000	125.818	59.000	32.420	26.580	
324.016354170000	125.668	59.687	32.718	26.968	
324.023298610000	124.382	59.432	32.342	27.090	
324.030243060000	125.887	59.702	32.815	26.887	
324.037187500000	125.048	59.295	32.228	27.067	
324.044131940000	125.778	59.662	32.645	27.017	
324.051076390000	126.232	58.772	32.287	26.485	
324.058020830000	126.190	58.888	32.118	26.770	
324.064965280000	125.800	58.927	32.292	26.635	
324.071909720000	125.970	59.535	32.818	26.717	
324.078854170000	125.847	58.823	32.093	26.730	
324.085798610000	125.043	59.248	32.532	26.717	
324.092743060000	125.108	58.738	32.317	26.422	
324.099687500000	124.417	59.177	32.280	26.897	
324.106631940000	124.958	59.355	32.378	26.977	
324.113576390000	125.298	59.373	32.598	26.775	
324.120520830000	125.185	59.562	32.657	26.905	
324.127465280000	82.085	39.055	21.308	17.747	
324.134409720000	124.725	59.387	32.237	27.150	
324.141354170000	125.288	59.638	32.580	27.058	
324.148298610000	125.607	59.723	32.647	27.077	
324.155243060000	125.612	59.848	32.505	27.343	
324.162187500000	126.195	59.830	32.733	27.097	
324.169131940000	124.737	59.142	32.108	27.033	
324.176076390000	124.932	59.533	32.590	26.943	
324.183020830000	125.473	59.557	32.665	26.892	
324.189965280000	124.902	59.173	32.502	26.672	
324.196909720000	125.543	59.370	32.272	27.098	
324.203854170000	125.373	59.138	32.215	26.923	
324.210798610000	124.828	58.740	32.440	26.300	
324.217743060000	125.932	59.355	32.568	26.787	
324.224687500000	125.020	59.417	32.347	27.070	
324.231631940000	125.053	59.308	32.567	26.742	
324.238576390000	125.633	59.587	32.847	26.740	
324.245520830000	125.343	59.488	32.668	26.820	
324.252465280000	80.978	38.167	20.603	17.563	
324.259409720000	125.780	59.380	32.400	26.980	
324.266354170000	125.550	59.512	32.482	27.030	
324.273298610000	125.663	59.750	32.825	26.925	
324.280243060000	124.543	58.942	32.172	26.770	
324.287187500000	125.267	59.280	32.352	26.928	
324.294131940000	125.925	60.095	32.878	27.217	
324.301076390000	126.117	60.408	32.980	27.428	
324.308020830000	124.733	59.118	32.225	26.893	
324.314965280000	124.863	59.195	32.507	26.688	
324.321909720000	124.658	59.538	32.245	27.293	
324.328854170000	124.995	59.532	32.590	26.942	
324.335798610000	124.882	59.578	32.757	26.822	
324.342743060000	125.213	59.897	32.800	27.097	
324.349687500000	125.432	59.397	32.723	26.673	
324.356631940000	124.882	59.032	32.358	26.673	
324.363576390000	125.053	59.103	31.967	27.137	
324.370520830000	125.397	58.303	31.707	26.597	
324.377465280000	81.923	38.313	21.120	17.193	
324.384409720000	125.412	58.572	32.125	26.447	
324.391354170000	124.870	59.565	32.353	27.212	
324.398298610000	124.828	58.878	32.083	26.795	
324.405243060000	125.445	59.935	32.548	27.387	
324.412187500000	124.887	59.318	32.488	26.830	
324.419131940000	125.347	59.328	32.373	26.955	
324.426076390000	124.510	59.338	32.308	27.030	
324.433020830000	125.267	58.613	32.290	26.323	
324.439965280000	125.318	58.445	31.968	26.477	
324.446909720000	124.982	59.242	32.443	26.798	
324.453854170000	125.223	59.157	32.083	27.073	
324.460798610000	124.513	59.062	32.463	26.598	
324.467743060000	125.778	58.900	32.303	26.597	
324.474687500000	124.823	58.732	32.038	26.693	
324.481631940000	125.773	59.977	32.848	27.128	
324.488576390000	124.558	58.943	32.072	26.872	
324.495520830000	125.347	59.075	32.188	26.887	
324.502465280000	83.023	39.107	21.553	17.553	
324.509409720000	124.592	59.235	32.363	26.872	
324.516354170000	124.012	58.993	32.553	26.440	
324.523298610000	124.817	59.135	32.645	26.490	
324.530243060000	124.107	59.425	32.153	27.272	
324.537187500000	124.542	58.658	31.948	26.710	
324.544131940000	125.760	59.522	32.488	27.033	
324.551076390000	124.057	59.123	32.397	26.727	
324.558020830000	124.787	59.390	32.497	26.893	
324.564965280000	124.347	58.617	31.777	26.840	
324.571909720000	125.392	59.160	32.295	26.865	
324.578854170000	125.177	59.025	32.310	26.715	
324.585798610000	125.700	59.620	32.595	27.025	
324.592743060000	124.495	58.792	32.237	26.555	
324.599687500000	126.368	59.633	32.957	26.677	
324.606631940000	126.062	59.448	32.558	26.890	
324.613576390000	125.037	58.655	31.912	26.743	
324.620520830000	125.743	59.678	32.520	27.158	
324.627465280000	83.287	39.248	21.460	17.788	
324.634409720000	125.600	59.925	32.820	27.105	
324.641354170000	125.058	59.537	32.530	27.007	
324.648298610000	125.435	59.422	32.645	26.777	
324.655243060000	125.252	59.263	32.408	26.855	
324.662187500000	125.930	59.788	33.018	26.770	
324.669131940000	124.967	58.898	32.428	26.470	
324.676076390000	125.717	59.360	32.417	26.943	
324.683020830000	125.342	59.438	32.303	27.135	
324.689965280000	125.358	59.428	32.493	26.935	
324.696909720000	125.897	59.897	32.882	27.015	
324.703854170000	126.098	59.627	32.378	27.248	
324.710798610000	125.847	59.578	32.548	27.030	
324.717743060000	125.518	59.213	32.602	26.612	
324.724687500000	125.355	59.605	32.688	26.917	
324.731631940000	125.998	59.553	32.712	26.842	
324.738576390000	124.625	59.267	32.505	26.762	
324.745520830000	123.953	58.372	32.032	26.340	
324.752465280000	82.887	39.187	21.473	17.713	
324.759409720000	124.417	59.315	32.445	26.870	
324.766354170000	125.010	58.902	32.170	26.732	
324.773298610000	124.945	59.133	32.080	27.053	
324.780243060000	126.248	58.542	32.145	26.397	
324.787187500000	124.292	58.763	31.858	26.905	
324.794131940000	123.378	58.132	31.745	26.387	
324.801076390000	124.935	59.285	32.398	26.887	
324.808020830000	124.028	58.797	32.100	26.697	
324.814965280000	123.977	58.702	31.990	26.712	
324.821909720000	124.860	59.242	32.262	26.980	
324.828854170000	123.735	58.790	32.007	26.783	
324.835798610000	123.568	58.692	32.428	26.263	
324.842743060000	124.388	58.258	32.078	26.180	
324.849687500000	124.638	58.673	32.255	26.418	
324.856631940000	123.783	58.022	31.958	26.063	
324.863576390000	123.867	58.453	32.238	26.215	
324.870520830000	124.128	58.513	31.977	26.537	
324.877465280000	81.168	38.258	20.737	17.522	
324.884409720000	123.923	58.988	32.335	26.653	
324.891354170000	124.388	58.657	32.125	26.532	
324.898298610000	124.687	58.757	31.988	26.768	
324.905243060000	124.397	58.365	31.873	26.492	
324.912187500000	124.687	59.040	32.367	26.673	
324.919131940000	124.955	58.365	32.063	26.302	
324.926076390000	124.050	58.570	31.938	26.632	
324.933020830000	124.158	58.372	31.883	26.488	
324.939965280000	123.513	58.178	31.823	26.355	
324.946909720000	123.457	58.633	32.125	26.508	
324.953854170000	124.148	58.178	31.922	26.257	
324.960798610000	124.257	58.658	31.658	27.000	
324.967743060000	123.567	58.307	32.022	26.285	
324.974687500000	123.515	58.670	31.867	26.803	
324.981631940000	123.928	58.388	32.102	26.287	
324.988576390000	123.535	58.552	32.062	26.490	
324.995520830000	123.527	58.900	32.273	26.627	
325.002465280000	81.448	38.245	20.632	17.613	
325.009409720000	124.107	58.352	31.810	26.542	
325.016354170000	123.977	58.425	31.912	26.513	
325.023298610000	124.692	58.562	32.118	26.443	
325.030243060000	123.992	58.535	32.115	26.420	
325.037187500000	124.430	58.782	32.092	26.690	
325.044131940000	123.873	58.212	31.955	26.257	
325.051076390000	123.860	57.960	31.335	26.625	
325.058020830000	124.182	58.188	32.037	26.152	
325.064965280000	124.137	58.323	32.025	26.298	
325.071909720000	123.918	58.383	31.918	26.465	
325.078854170000	124.662	58.937	32.310	26.627	
325.085798610000	124.477	58.538	32.085	26.453	
325.092743060000	123.507	57.673	31.335	26.338	
325.099687500000	123.907	58.042	32.155	25.887	
325.106631940000	123.932	58.465	32.085	26.380	
325.113576390000	123.915	58.210	32.023	26.187	
325.120520830000	124.487	58.428	32.168	26.260	
325.127465280000	82.380	38.523	21.215	17.308	
325.134409720000	124.407	58.418	31.998	26.420	
325.141354170000	124.372	58.562	31.918	26.643	
325.148298610000	124.315	58.493	31.927	26.567	
325.155243060000	123.830	58.637	32.075	26.562	
325.162187500000	123.923	58.992	32.123	26.868	
325.169131940000	123.577	58.820	32.158	26.662	
325.176076390000	125.520	58.907	32.032	26.875	
325.183020830000	123.888	58.160	32.250	25.910	
325.189965280000	124.517	58.518	32.147	26.372	
325.196909720000	124.437	57.693	31.492	26.202	
325.203854170000	123.977	58.288	31.767	26.522	
325.210798610000	124.522	59.018	32.387	26.632	
325.217743060000	123.145	57.753	31.695	26.058	
325.224687500000	125.258	59.142	32.407	26.735	
325.231631940000	124.063	58.555	31.698	26.857	
325.238576390000	124.683	58.820	32.130	26.690	
325.245520830000	123.518	58.250	31.830	26.420	
325.252465280000	82.027	38.690	21.023	17.667	
325.259409720000	123.868	58.892	32.227	26.665	
325.266354170000	124.373	58.938	32.358	26.580	
325.273298610000	124.490	59.040	32.452	26.588	
325.280243060000	124.553	58.942	32.185	26.757	
325.287187500000	123.535	58.767	32.297	26.470	
325.294131940000	124.505	59.357	32.578	26.778	
325.301076390000	123.880	59.035	32.290	26.745	
325.308020830000	124.293	58.302	32.193	26.108	
325.314965280000	124.278	58.195	31.705	26.490	
325.321909720000	123.680	58.503	32.007	26.497	
325.328854170000	123.812	58.260	31.713	26.547	
325.335798610000	123.920	57.912	31.472	26.440	
325.342743060000	124.117	58.417	31.927	26.490	
325.349687500000	124.555	58.732	32.470	26.262	
325.356631940000	124.125	58.625	32.205	26.420	
325.363576390000	123.942	58.840	32.230	26.610	
325.370520830000	123.887	58.565	32.257	26.308	
325.377465280000	81.370	38.423	21.055	17.368	
325.384409720000	123.987	58.237	31.713	26.523	
325.391354170000	123.813	59.013	32.080	26.933	
325.398298610000	123.722	58.887	32.043	26.843	
325.405243060000	123.478	58.802	31.963	26.838	
325.412187500000	123.477	57.353	31.452	25.902	
325.419131940000	124.683	58.132	31.712	26.420	
325.426076390000	123.935	58.505	32.080	26.425	
325.433020830000	123.695	58.007	31.950	26.057	
325.439965280000	124.045	58.535	31.808	26.727	
325.446909720000	123.895	58.352	31.845	26.507	
325.453854170000	123.955	57.925	31.993	25.932	
325.460798610000	124.200	57.623	31.905	25.718	
325.467743060000	124.885	58.148	31.752	26.397	
325.474687500000	124.338	57.760	31.433	26.327	
325.481631940000	123.445	58.187	31.900	26.287	
325.488576390000	124.520	57.967	32.058	25.908	
325.495520830000	123.283	57.630	31.472	26.158	
325.502465280000	81.253	38.525	21.007	17.518	
325.509409720000	122.093	58.445	32.080	26.365	
325.516354170000	123.208	58.660	31.765	26.895	
325.523298610000	122.660	58.263	32.032	26.232	
325.530243060000	123.228	57.960	31.915	26.045	
325.537187500000	123.158	58.315	31.978	26.337	
325.544131940000	123.873	58.685	32.108	26.577	
325.551076390000	123.520	58.023	31.762	26.262	
325.558020830000	123.735	58.197	32.060	26.137	
325.564965280000	124.368	58.625	31.847	26.778	
325.571909720000	124.305	58.862	32.097	26.765	
325.578854170000	124.457	58.218	32.082	26.137	
325.585798610000	123.978	57.927	31.552	26.375	
325.592743060000	124.290	58.487	31.723	26.763	
325.599687500000	124.422	57.952	31.830	26.122	
325.606631940000	124.748	57.452	31.580	25.872	
325.613576390000	123.960	57.747	31.412	26.335	
325.620520830000	124.462	58.148	31.822	26.327	
325.627465280000	82.502	38.253	20.933	17.320	
325.634409720000	124.908	59.233	32.387	26.847	
325.641354170000	124.617	58.913	32.292	26.622	
325.648298610000	123.992	58.143	31.990	26.153	
325.655243060000	124.212	57.832	31.563	26.268	
325.662187500000	124.422	58.232	31.943	26.288	
325.669131940000	124.082	58.008	31.492	26.517	
325.676076390000	124.475	59.260	32.178	27.082	
325.683020830000	123.478	58.685	32.110	26.575	
325.689965280000	123.992	58.430	31.878	26.552	
325.696909720000	123.977	57.610	31.530	26.080	
325.703854170000	124.912	58.680	32.005	26.675	
325.710798610000	124.470	58.572	32.223	26.348	
325.717743060000	123.365	58.290	31.938	26.352	
325.724687500000	123.807	57.710	31.545	26.165	
325.731631940000	124.725	58.212	32.022	26.190	
325.738576390000	124.410	57.650	31.540	26.110	
325.745520830000	124.935	58.165	31.912	26.253	
325.752465280000	82.997	38.873	21.337	17.537	
325.759409720000	124.333	58.300	31.822	26.478	
325.766354170000	124.393	58.692	32.147	26.545	
325.773298610000	123.027	57.548	31.552	25.997	
325.780243060000	124.273	58.123	31.783	26.340	
325.787187500000	124.158	58.015	31.638	26.377	
325.794131940000	123.573	58.203	32.018	26.185	
325.801076390000	124.383	58.420	32.242	26.178	
325.808020830000	124.445	58.602	32.027	26.575	
325.814965280000	123.003	57.303	31.558	25.745	
325.821909720000	123.802	58.105	32.053	26.052	
325.828854170000	123.667	58.362	31.795	26.567	
325.835798610000	123.117	57.422	31.483	25.938	
325.842743060000	123.305	57.553	31.927	25.627	
325.849687500000	124.253	58.263	31.567	26.697	
325.856631940000	123.438	58.233	31.710	26.523	
325.863576390000	123.793	57.887	31.482	26.405	
325.870520830000	123.852	58.275	31.543	26.732	
325.877465280000	80.513	38.025	20.745	17.280	
325.884409720000	123.170	57.900	31.623	26.277	
325.891354170000	122.765	57.540	31.637	25.903	
325.898298610000	122.928	57.627	31.612	26.015	
325.905243060000	123.442	57.588	31.295	26.293	
325.912187500000	124.192	57.978	31.658	26.320	
325.919131940000	123.822	57.442	31.562	25.880	
325.926076390000	123.430	57.352	31.185	26.167	
325.933020830000	123.138	57.228	31.378	25.850	
325.939965280000	123.147	57.230	31.210	26.020	
325.946909720000	122.505	57.832	31.512	26.320	
325.953854170000	123.213	57.993	31.868	26.125	
325.960798610000	122.902	57.870	31.757	26.113	
325.967743060000	122.727	57.542	31.492	26.050	
325.974687500000	123.383	57.695	31.548	26.147	
325.981631940000	122.522	57.218	31.283	25.935	
325.988576390000	123.015	58.028	31.567	26.462	
325.995520830000	122.703	57.498	31.533	25.965	
326.002465280000	81.678	38.030	20.943	17.087	
326.009409720000	123.767	57.503	31.562	25.942	
326.016354170000	123.130	57.312	31.405	25.907	
326.023298610000	123.377	56.702	30.992	25.710	
326.030243060000	123.708	57.343	31.522	25.822	
326.037187500000	123.920	57.875	31.520	26.355	
326.044131940000	122.447	57.007	31.145	25.862	
326.051076390000	122.567	57.935	31.600	26.335	
326.058020830000	124.550	57.817	31.502	26.315	
326.064965280000	123.448	57.340	31.462	25.878	
326.071909720000	124.535	57.675	31.617	26.058	
326.078854170000	123.572	57.412	31.517	25.895	
326.085798610000	123.980	57.065	31.580	25.485	
326.092743060000	124.505	57.373	31.635	25.738	
326.099687500000	124.298	57.373	31.362	26.012	
326.106631940000	123.888	58.052	31.782	26.270	
326.113576390000	122.462	58.020	31.768	26.252	
326.120520830000	122.917	58.032	31.605	26.427	
326.127465280000	81.833	38.262	20.942	17.320	
326.134409720000	123.537	58.195	31.895	26.300	
326.141354170000	122.625	57.855	31.508	26.347	
326.148298610000	123.642	58.267	31.598	26.668	
326.155243060000	122.773	57.005	31.168	25.837	
326.162187500000	122.687	57.678	31.603	26.075	
326.169131940000	122.640	57.822	31.928	25.893	
326.176076390000	123.842	58.420	31.843	26.577	
326.183020830000	123.568	57.828	31.635	26.193	
326.189965280000	123.027	57.595	31.303	26.292	
326.196909720000	123.908	58.142	32.157	25.985	
326.203854170000	124.045	57.882	31.792	26.090	
326.210798610000	123.457	57.538	31.632	25.907	
326.217743060000	123.815	57.730	31.880	25.850	
326.224687500000	124.082	57.637	31.662	25.975	
326.231631940000	123.373	57.823	31.948	25.875	
326.238576390000	123.430	57.262	31.338	25.923	
326.245520830000	124.013	57.915	31.643	26.272	
326.252465280000	81.742	37.985	20.820	17.165	
326.259409720000	123.788	57.550	31.735	25.815	
326.266354170000	124.310	57.897	31.822	26.075	
326.273298610000	123.798	57.542	31.345	26.197	
326.280243060000	123.317	57.533	31.495	26.038	
326.287187500000	123.277	57.928	31.900	26.028	
326.294131940000	123.710	58.387	31.935	26.452	
326.301076390000	123.418	57.788	31.777	26.012	
326.308020830000	123.823	58.057	31.547	26.510	
326.314965280000	124.043	58.087	32.008	26.078	
326.321909720000	123.223	57.687	31.447	26.240	
326.328854170000	123.722	58.397	32.213	26.183	
326.335798610000	123.917	58.315	31.795	26.520	
326.342743060000	123.712	58.082	31.538	26.543	
326.349687500000	123.223	57.985	31.880	26.105	
326.356631940000	123.260	57.872	31.697	26.175	
326.363576390000	124.302	57.642	31.567	26.075	
326.370520830000	123.812	57.288	31.630	25.658	
326.377465280000	81.463	37.977	20.805	17.172	
326.384409720000	122.888	57.912	31.675	26.237	
326.391354170000	122.787	57.748	31.633	26.115	
326.398298610000	122.475	57.465	31.573	25.892	
326.405243060000	123.442	57.507	31.495	26.012	
326.412187500000	122.812	57.067	31.288	25.778	
326.419131940000	123.822	57.690	31.493	26.197	
326.426076390000	123.567	58.002	31.692	26.310	
326.433020830000	122.923	57.552	31.775	25.777	
326.439965280000	123.395	57.908	31.677	26.232	
326.446909720000	122.820	58.253	32.035	26.218	
326.453854170000	122.522	57.208	31.457	25.752	
326.460798610000	123.145	57.588	31.545	26.043	
326.467743060000	122.565	57.382	31.303	26.078	
326.474687500000	122.675	57.873	31.522	26.352	
326.481631940000	122.762	57.922	31.575	26.347	
326.488576390000	123.120	57.723	31.512	26.212	
326.495520830000	124.073	56.460	31.170	25.290	
326.502465280000	82.170	37.452	20.765	16.687	
326.509409720000	123.618	58.365	31.905	26.460	
326.516354170000	123.507	58.170	31.742	26.428	
326.523298610000	123.990	58.172	32.107	26.065	
326.530243060000	123.935	57.952	31.722	26.230	
326.537187500000	122.757	57.633	31.173	26.460	
326.544131940000	123.500	57.842	31.813	26.028	
326.551076390000	124.385	57.978	31.900	26.078	
326.558020830000	123.357	57.247	31.185	26.062	
326.564965280000	123.872	56.830	31.332	25.498	
326.571909720000	124.265	56.832	31.008	25.823	
326.578854170000	125.412	57.538	31.433	26.105	
326.585798610000	124.398	57.405	31.673	25.732	
326.592743060000	124.017	57.438	31.473	25.965	
326.599687500000	124.818	58.508	32.033	26.475	
326.606631940000	123.738	57.650	31.795	25.855	
326.613576390000	124.167	57.975	31.655	26.320	
326.620520830000	124.020	57.687	31.650	26.037	
326.627465280000	81.788	37.788	20.537	17.252	
326.634409720000	124.367	57.817	31.870	25.947	
326.641354170000	123.785	57.685	31.583	26.102	
326.648298610000	124.480	58.348	32.162	26.187	
326.655243060000	123.728	57.658	31.572	26.087	
326.662187500000	123.308	58.078	31.665	26.413	
326.669131940000	123.203	57.902	31.958	25.943	
326.676076390000	123.268	58.382	31.892	26.490	
326.683020830000	123.675	58.288	31.977	26.312	
326.689965280000	123.707	57.617	31.610	26.007	
326.696909720000	125.070	58.262	32.013	26.248	
326.703854170000	123.175	58.065	31.562	26.503	
326.710798610000	123.187	58.708	32.075	26.633	
326.717743060000	122.970	58.255	31.672	26.583	
326.724687500000	124.302	58.560	32.020	26.540	
326.731631940000	123.947	58.465	31.948	26.517	
326.738576390000	122.402	58.902	32.152	26.750	
326.745520830000	123.335	59.203	32.323	26.880	
326.752465280000	79.987	38.718	21.122	17.597	
326.759409720000	122.918	57.942	31.867	26.075	
326.766354170000	124.218	58.550	32.127	26.423	
326.773298610000	123.585	58.850	32.072	26.778	
326.780243060000	122.995	59.113	32.277	26.837	
326.787187500000	123.008	58.415	31.585	26.830	
326.794131940000	124.550	58.798	32.080	26.718	
326.801076390000	123.450	57.205	31.120	26.085	
326.808020830000	123.135	57.572	31.225	26.347	
326.814965280000	123.572	58.497	32.140	26.357	
326.821909720000	122.795	57.547	31.540	26.007	
326.828854170000	123.525	57.773	31.520	26.253	
326.835798610000	123.657	57.692	31.370	26.322	
326.842743060000	123.812	57.402	31.497	25.905	
326.849687500000	123.312	57.552	31.308	26.243	
326.856631940000	123.543	57.875	31.928	25.947	
326.863576390000	123.783	57.127	31.018	26.108	
326.870520830000	122.767	57.545	31.540	26.005	
326.877465280000	80.173	37.548	20.587	16.962	
326.884409720000	123.385	58.037	31.697	26.340	
326.891354170000	123.860	57.748	31.660	26.088	
326.898298610000	123.830	57.195	31.152	26.043	
326.905243060000	122.470	56.645	31.145	25.500	
326.912187500000	122.548	57.647	31.697	25.950	
326.919131940000	123.063	57.765	31.732	26.033	
326.926076390000	122.532	57.782	31.410	26.372	
326.933020830000	123.592	57.892	31.885	26.007	
326.939965280000	123.097	57.218	31.257	25.962	
326.946909720000	122.978	57.503	31.512	25.992	
326.953854170000	123.083	57.040	30.968	26.072	
326.960798610000	123.060	57.297	31.442	25.855	
326.967743060000	122.410	57.658	31.315	26.343	
326.974687500000	123.102	57.232	31.337	25.895	
326.981631940000	123.660	57.648	31.643	26.005	
326.988576390000	122.685	56.647	31.003	25.643	
326.995520830000	123.220	56.793	30.945	25.848	
327.002465280000	81.380	37.802	20.823	16.978	
327.009409720000	122.925	57.522	31.518	26.003	
327.016354170000	122.325	57.355	31.592	25.763	
327.023298610000	123.805	58.197	32.065	26.132	
327.030243060000	123.270	57.808	31.648	26.160	
327.037187500000	123.387	57.808	31.818	25.990	
327.044131940000	123.902	57.185	31.518	25.667	
327.051076390000	123.597	57.372	31.095	26.277	
327.058020830000	123.465	57.105	31.255	25.850	
327.064965280000	123.420	57.022	31.240	25.782	
327.071909720000	123.402	57.882	31.570	26.312	
327.078854170000	123.242	57.347	31.275	26.072	
327.085798610000	123.125	57.390	31.592	25.798	
327.092743060000	123.592	58.040	31.602	26.438	
327.099687500000	123.043	57.625	31.280	26.345	
327.106631940000	123.098	57.403	31.593	25.810	
327.113576390000	123.798	57.827	31.598	26.228	
327.120520830000	123.463	57.752	31.702	26.050	
327.127465280000	81.448	38.258	20.678	17.580	
327.134409720000	124.018	58.728	31.893	26.835	
327.141354170000	123.450	58.058	31.560	26.498	
327.148298610000	122.742	57.878	31.605	26.273	
327.155243060000	123.322	57.677	31.643	26.033	
327.162187500000	123.183	58.772	32.280	26.492	
327.169131940000	123.220	58.165	31.980	26.185	
327.176076390000	123.248	57.635	31.375	26.260	
327.183020830000	123.130	57.867	31.328	26.538	
327.189965280000	123.202	58.300	31.767	26.533	
327.196909720000	123.782	57.837	31.620	26.217	
327.203854170000	123.488	57.255	30.993	26.262	
327.210798610000	123.433	58.042	31.563	26.478	
327.217743060000	123.790	58.703	32.082	26.622	
327.224687500000	123.075	58.598	32.093	26.505	
327.231631940000	123.147	58.433	31.957	26.477	
327.238576390000	124.038	57.962	31.917	26.045	
327.245520830000	123.512	57.760	31.567	26.193	
327.252465280000	82.292	38.518	21.025	17.493	
327.259409720000	123.900	57.665	31.640	26.025	
327.266354170000	123.982	58.508	32.082	26.427	
327.273298610000	123.762	58.015	31.645	26.370	
327.280243060000	123.125	58.678	32.012	26.667	
327.287187500000	124.083	58.367	32.097	26.270	
327.294131940000	124.243	58.320	31.618	26.702	
327.301076390000	122.495	57.653	31.385	26.268	
327.308020830000	123.363	57.847	31.672	26.175	
327.314965280000	123.697	57.627	31.495	26.132	
327.321909720000	123.677	57.977	31.567	26.410	
327.328854170000	124.068	58.742	31.995	26.747	
327.335798610000	123.020	57.790	31.590	26.200	
327.342743060000	123.722	58.415	31.918	26.497	
327.349687500000	122.902	57.990	31.635	26.355	
327.356631940000	123.310	57.945	31.790	26.155	
327.363576390000	124.097	58.417	32.017	26.400	
327.370520830000	123.467	58.043	31.717	26.327	
327.377465280000	80.428	38.357	20.857	17.500	
327.384409720000	123.567	58.610	31.887	26.723	
327.391354170000	123.272	58.158	31.582	26.577	
327.398298610000	123.262	58.238	31.678	26.560	
327.405243060000	123.782	58.162	31.870	26.292	
327.412187500000	124.180	58.002	31.607	26.395	
327.419131940000	122.887	57.367	31.640	25.727	
327.426076390000	123.507	57.900	31.700	26.200	
327.433020830000	124.023	58.177	31.867	26.310	
327.439965280000	123.685	58.410	31.858	26.552	
327.446909720000	124.007	58.258	31.927	26.332	
327.453854170000	123.002	57.682	31.600	26.082	
327.460798610000	122.460	57.427	31.433	25.993	
327.467743060000	123.738	58.168	31.913	26.255	
327.474687500000	123.837	57.677	31.297	26.380	
327.481631940000	123.420	58.033	31.828	26.205	
327.488576390000	123.728	57.883	31.620	26.263	
327.495520830000	123.503	57.787	31.285	26.502	
327.502465280000	81.323	37.962	20.572	17.390	
327.509409720000	123.122	58.233	31.863	26.370	
327.516354170000	123.838	58.583	32.208	26.375	
327.523298610000	123.423	58.142	31.825	26.317	
327.530243060000	123.825	57.312	31.035	26.277	
327.537187500000	124.095	58.182	31.827	26.355	
327.544131940000	123.353	57.510	31.537	25.973	
327.551076390000	123.842	57.995	31.852	26.143	
327.558020830000	122.813	58.717	31.978	26.738	
327.564965280000	123.367	58.847	32.098	26.748	
327.571909720000	123.438	57.585	31.390	26.195	
327.578854170000	123.645	58.612	32.105	26.507	
327.585798610000	122.340	58.085	31.247	26.838	
327.592743060000	123.432	58.787	32.245	26.542	
327.599687500000	123.620	58.588	31.585	27.003	
327.606631940000	123.332	58.732	31.915	26.817	
327.613576390000	122.967	58.948	32.382	26.567	
327.620520830000	122.497	59.182	32.050	27.132	
327.627465280000	80.487	39.112	21.280	17.832	
327.634409720000	122.220	58.732	32.012	26.720	
327.641354170000	122.612	58.687	31.862	26.825	
327.648298610000	123.075	58.538	32.125	26.413	
327.655243060000	122.683	58.610	31.698	26.912	
327.662187500000	123.367	59.168	32.155	27.013	
327.669131940000	122.737	58.453	32.075	26.378	
327.676076390000	121.888	58.913	32.188	26.725	
327.683020830000	123.415	58.950	32.108	26.842	
327.689965280000	123.448	59.167	32.442	26.725	
327.696909720000	122.595	59.620	32.362	27.258	
327.703854170000	122.570	59.070	31.932	27.138	
327.710798610000	123.825	59.292	32.133	27.158	
327.717743060000	123.528	59.033	32.323	26.710	
327.724687500000	121.908	58.332	31.678	26.653	
327.731631940000	121.850	58.995	32.088	26.907	
327.738576390000	122.642	59.432	32.360	27.072	
327.745520830000	123.197	59.122	32.252	26.870	
327.752465280000	80.417	38.390	20.940	17.450	
327.759409720000	122.972	58.988	32.038	26.950	
327.766354170000	123.278	58.507	31.845	26.662	
327.773298610000	123.775	59.303	32.235	27.068	
327.780243060000	122.702	58.950	32.027	26.923	
327.787187500000	122.940	58.768	32.102	26.667	
327.794131940000	122.477	59.240	32.092	27.148	
327.801076390000	123.045	59.098	32.145	26.953	
327.808020830000	123.558	58.023	31.670	26.353	
327.814965280000	123.142	58.517	31.773	26.743	
327.821909720000	123.123	58.533	31.903	26.630	
327.828854170000	122.717	58.423	31.910	26.513	
327.835798610000	123.623	58.505	31.940	26.565	
327.842743060000	123.257	58.053	31.863	26.190	
327.849687500000	123.587	58.585	32.137	26.448	
327.856631940000	123.437	59.003	32.082	26.922	
327.863576390000	122.872	58.612	32.062	26.550	
327.870520830000	122.498	58.145	31.798	26.347	
327.877465280000	80.395	38.485	21.048	17.437	
327.884409720000	123.957	58.672	31.807	26.865	
327.891354170000	123.905	58.185	31.843	26.342	
327.898298610000	122.990	58.132	31.687	26.445	
327.905243060000	122.393	58.745	32.205	26.540	
327.912187500000	122.142	57.537	31.487	26.050	
327.919131940000	124.325	58.010	31.977	26.033	
327.926076390000	123.613	57.640	31.575	26.065	
327.933020830000	123.542	57.692	31.673	26.018	
327.939965280000	122.735	58.040	32.010	26.030	
327.946909720000	122.328	58.478	31.912	26.567	
327.953854170000	123.330	58.292	31.898	26.393	
327.960798610000	124.008	58.205	31.883	26.322	
327.967743060000	123.593	57.935	31.628	26.307	
327.974687500000	124.910	58.330	31.798	26.532	
327.981631940000	123.775	58.450	32.060	26.390	
327.988576390000	123.275	58.818	32.070	26.748	
327.995520830000	124.012	57.915	32.095	25.820	
328.002465280000	80.773	37.650	20.523	17.127	
328.009409720000	123.715	57.667	31.733	25.933	
328.016354170000	123.242	58.222	32.072	26.150	
328.023298610000	122.777	58.005	31.788	26.217	
328.030243060000	122.845	57.232	31.493	25.738	
328.037187500000	123.433	58.447	31.880	26.567	
328.044131940000	122.858	58.175	31.687	26.488	
328.051076390000	124.102	57.807	31.523	26.283	
328.058020830000	123.760	58.328	31.832	26.497	
328.064965280000	123.055	58.252	31.792	26.460	
328.071909720000	123.630	58.477	32.057	26.420	
328.078854170000	124.202	57.997	31.813	26.183	
328.085798610000	123.982	58.103	31.787	26.317	
328.092743060000	124.742	58.870	32.435	26.435	
328.099687500000	122.952	58.172	31.720	26.452	
328.106631940000	123.027	58.632	32.293	26.338	
328.113576390000	123.052	56.325	31.017	25.308	
328.120520830000	123.707	56.427	31.260	25.167	
328.127465280000	81.517	37.288	20.467	16.822	
328.134409720000	123.390	57.888	31.907	25.982	
328.141354170000	123.072	57.988	31.797	26.192	
328.148298610000	122.585	58.267	31.618	26.648	
328.155243060000	123.242	58.358	32.113	26.245	
328.162187500000	122.783	58.557	31.925	26.632	
328.169131940000	122.133	58.547	32.248	26.298	
328.176076390000	122.920	57.850	31.742	26.108	
328.183020830000	123.130	58.445	31.878	26.567	
328.189965280000	123.175	58.497	31.932	26.565	
328.196909720000	122.322	58.118	31.572	26.547	
328.203854170000	123.850	58.967	32.270	26.697	
328.210798610000	124.022	58.613	32.145	26.468	
328.217743060000	124.573	57.845	31.825	26.020	
328.224687500000	124.225	57.710	32.085	25.625	
328.231631940000	123.732	58.075	31.813	26.262	
328.238576390000	124.485	57.862	31.843	26.018	
328.245520830000	124.253	58.402	32.158	26.243	
328.252465280000	81.973	38.402	21.168	17.233	
328.259409720000	124.767	57.963	31.983	25.980	
328.266354170000	124.358	57.223	31.852	25.372	
328.273298610000	125.078	57.293	31.480	25.813	
328.280243060000	124.863	56.957	31.343	25.613	
328.287187500000	124.428	57.223	31.635	25.588	
328.294131940000	124.437	56.615	31.163	25.452	
328.301076390000	125.323	57.527	31.658	25.868	
328.308020830000	124.893	58.030	31.920	26.110	
328.314965280000	124.225	57.778	31.752	26.027	
328.321909720000	123.782	58.548	32.213	26.335	
328.328854170000	124.370	59.105	32.290	26.815	
328.335798610000	122.860	59.210	32.457	26.753	
328.342743060000	122.663	59.948	32.643	27.305	
328.349687500000	122.433	60.660	32.973	27.687	
328.356631940000	122.702	59.992	32.850	27.142	
328.363576390000	123.438	60.670	32.868	27.802	
328.370520830000	122.795	59.735	32.943	26.792	
328.377465280000	80.308	39.665	21.478	18.187	
328.384409720000	122.073	59.775	32.508	27.267	
328.391354170000	123.075	59.867	32.805	27.062	
328.398298610000	123.632	59.770	32.650	27.120	
328.405243060000	123.552	58.845	32.048	26.797	
328.412187500000	122.977	58.417	32.043	26.373	
328.419131940000	123.187	57.885	31.570	26.315	
328.426076390000	124.722	57.953	31.968	25.985	
328.433020830000	124.273	57.608	31.505	26.103	
328.439965280000	124.943	57.358	31.512	25.847	
328.446909720000	123.943	56.690	31.090	25.600	
328.453854170000	124.272	57.682	31.890	25.792	
328.460798610000	124.028	57.343	31.375	25.968	
328.467743060000	124.558	56.858	31.408	25.450	
328.474687500000	125.070	57.383	31.348	26.035	
328.481631940000	125.463	56.778	31.185	25.593	
328.488576390000	126.323	56.835	31.170	25.665	
328.495520830000	124.983	56.912	31.225	25.687	
328.502465280000	82.605	37.428	20.443	16.985	
328.509409720000	123.683	58.375	32.057	26.318	
328.516354170000	123.715	58.913	32.087	26.827	
328.523298610000	123.415	58.792	32.152	26.640	
328.530243060000	123.252	59.828	32.837	26.992	
328.537187500000	122.930	59.290	32.680	26.610	
328.544131940000	122.830	59.425	32.390	27.035	
328.551076390000	122.872	60.137	32.768	27.368	
328.558020830000	122.810	60.643	33.098	27.545	
328.564965280000	122.470	60.343	32.782	27.562	
328.571909720000	123.167	59.947	32.672	27.275	
328.578854170000	123.060	59.660	32.455	27.205	
328.585798610000	122.995	59.907	32.808	27.098	
328.592743060000	123.015	59.693	32.868	26.825	
328.599687500000	123.678	59.675	32.805	26.870	
328.606631940000	123.412	59.263	32.480	26.783	
328.613576390000	123.968	58.513	32.252	26.262	
328.620520830000	124.197	58.750	32.348	26.402	
328.627465280000	81.248	37.978	21.060	16.918	
328.634409720000	124.173	57.545	31.528	26.017	
328.641354170000	124.377	58.270	32.210	26.060	
328.648298610000	125.113	58.608	32.303	26.305	
328.655243060000	124.838	58.198	31.998	26.200	
328.662187500000	123.985	57.217	31.433	25.783	
328.669131940000	124.695	57.522	31.725	25.797	
328.676076390000	125.482	57.702	31.680	26.022	
328.683020830000	125.393	57.857	32.055	25.802	
328.689965280000	125.040	57.335	31.628	25.707	
328.696909720000	123.873	57.623	31.822	25.802	
328.703854170000	125.163	57.850	31.700	26.150	
328.710798610000	124.990	58.102	31.990	26.112	
328.717743060000	123.982	60.738	33.438	27.300	
328.724687500000	123.488	60.882	33.045	27.837	
328.731631940000	122.377	60.795	32.765	28.030	
328.738576390000	123.273	61.513	33.723	27.790	
328.745520830000	122.143	60.842	32.960	27.882	
328.752465280000	79.262	39.665	21.285	18.380	
328.759409720000	122.480	59.698	32.427	27.272	
328.766354170000	122.322	60.572	32.907	27.665	
328.773298610000	123.562	60.922	33.183	27.738	
328.780243060000	123.660	60.245	32.977	27.268	
328.787187500000	123.687	60.298	32.958	27.340	
328.794131940000	124.160	60.393	32.920	27.473	
328.801076390000	123.108	59.340	32.320	27.020	
328.808020830000	123.383	58.663	32.127	26.537	
328.814965280000	124.995	58.470	31.858	26.612	
328.821909720000	124.413	58.252	32.178	26.073	
328.828854170000	124.463	58.732	31.850	26.882	
328.835798610000	123.857	58.058	32.085	25.973	
328.842743060000	125.598	57.918	31.937	25.982	
328.849687500000	124.347	57.313	31.585	25.728	
328.856631940000	125.200	57.405	31.273	26.132	
328.863576390000	124.865	57.583	31.357	26.227	
328.870520830000	123.760	58.852	32.412	26.440	
328.877465280000	81.670	39.537	21.593	17.943	
328.884409720000	122.557	60.292	32.625	27.667	
328.891354170000	122.842	60.972	33.208	27.763	
328.898298610000	122.158	60.332	32.695	27.637	
328.905243060000	123.250	60.568	33.003	27.565	
328.912187500000	122.857	60.260	33.022	27.238	
328.919131940000	123.003	60.022	32.708	27.313	
328.926076390000	123.333	59.687	32.605	27.082	
328.933020830000	122.748	59.433	32.743	26.690	
328.939965280000	123.033	59.477	32.637	26.840	
328.946909720000	124.797	58.340	31.943	26.397	
328.953854170000	123.768	58.628	32.103	26.525	
328.960798610000	124.435	58.845	32.425	26.420	
328.967743060000	123.940	58.222	31.935	26.287	
328.974687500000	124.765	57.177	31.955	25.222	
328.981631940000	125.580	57.603	31.455	26.148	
328.988576390000	124.107	56.790	31.620	25.170	
328.995520830000	125.758	57.643	31.665	25.978	
329.009305560000	125.080	58.015	31.770	26.245	
329.016250000000	124.927	58.240	31.868	26.372	
329.023194440000	124.222	58.705	32.342	26.363	
329.030138890000	123.722	59.975	32.583	27.392	
329.037083330000	123.085	60.672	33.195	27.477	
329.044027780000	122.628	61.188	33.445	27.743	
329.050972220000	122.893	61.188	32.850	28.338	
329.057916670000	122.500	59.957	32.835	27.122	
329.064861110000	123.072	60.445	32.908	27.537	
329.071805560000	122.627	59.945	32.708	27.237	
329.078750000000	124.482	59.290	32.572	26.718	
329.085694440000	125.152	59.420	32.458	26.962	
329.092638890000	124.040	58.955	32.125	26.830	
329.099583330000	123.177	58.335	32.073	26.262	
329.106527780000	123.848	58.568	32.297	26.272	
329.113472220000	124.312	58.243	31.792	26.452	
329.120416670000	125.450	59.135	32.428	26.707	
329.127465280000	82.322	38.757	21.406	17.351	
329.134409720000	125.252	58.797	32.310	26.487	
329.141354170000	125.125	58.907	32.518	26.388	
329.148298610000	125.628	58.567	32.162	26.405	
329.155243060000	126.050	59.187	32.520	26.667	
329.162187500000	125.452	59.093	32.627	26.467	
329.169131940000	124.972	57.985	31.947	26.038	
329.176076390000	125.473	58.882	32.418	26.463	
329.183020830000	125.375	58.977	32.437	26.540	
329.189965280000	125.957	58.670	32.343	26.327	
329.196909720000	125.153	58.203	31.773	26.430	
329.203854170000	125.338	58.730	32.297	26.433	
329.210798610000	124.878	58.903	32.170	26.733	
329.217743060000	124.975	58.950	32.337	26.613	
329.224687500000	123.830	60.453	33.080	27.373	
329.231631940000	123.302	60.178	33.070	27.108	
329.238576390000	60.302	29.383	16.063	13.320	
329.245520830000	123.458	61.135	33.333	27.802	
329.252465280000	80.325	40.093	21.438	18.655	
329.259409720000	122.698	62.012	33.648	28.363	
329.266354170000	122.373	60.912	33.108	27.803	
329.273298610000	122.907	61.263	33.280	27.983	
329.280243060000	123.263	61.448	33.237	28.212	
329.287187500000	122.118	60.873	32.660	28.213	
329.294131940000	121.727	61.175	33.143	28.032	
329.301076390000	123.733	60.845	33.340	27.505	
329.308020830000	123.638	60.280	32.825	27.455	
329.314965280000	124.108	59.963	32.832	27.132	
329.321909720000	124.470	60.045	33.230	26.815	
329.328854170000	124.622	60.107	32.837	27.270	
329.335798610000	123.795	59.403	32.613	26.790	
329.342743060000	125.590	59.983	32.645	27.338	
329.349687500000	125.485	59.242	32.562	26.680	
329.356631940000	125.160	59.085	32.403	26.682	
329.363576390000	125.818	58.777	32.345	26.432	
329.370520830000	125.267	58.710	32.623	26.087	
329.377465280000	82.883	38.592	21.122	17.470	
329.384409720000	125.115	58.898	32.360	26.538	
329.391354170000	125.278	58.603	32.340	26.263	
329.398298610000	125.500	58.608	31.992	26.617	
329.405243060000	124.813	58.820	32.200	26.620	
329.412187500000	125.105	58.438	32.270	26.168	
329.419131940000	125.357	58.050	31.617	26.433	
329.426076390000	126.207	58.800	32.173	26.627	
329.433020830000	126.062	58.160	32.325	25.835	
329.439965280000	125.113	57.557	31.607	25.950	
329.446909720000	125.642	57.915	31.622	26.293	
329.453854170000	125.723	57.938	31.973	25.965	
329.460798610000	125.293	58.365	32.212	26.153	
329.467743060000	124.175	58.798	31.797	27.002	
329.474687500000	124.930	59.375	32.477	26.898	
329.481631940000	123.890	58.907	31.950	26.957	
329.488576390000	124.738	59.502	32.558	26.943	
329.495520830000	125.063	59.713	32.728	26.985	
329.502465280000	82.652	39.400	21.277	18.123	
329.509409720000	124.033	58.838	32.312	26.527	
329.516354170000	124.012	59.693	32.910	26.783	
329.523298610000	123.397	59.823	32.765	27.058	
329.530243060000	122.663	60.870	32.980	27.890	
329.537187500000	122.730	61.685	33.468	28.217	
329.544131940000	122.765	61.132	32.968	28.163	
329.551076390000	122.873	61.260	33.483	27.777	
329.558020830000	122.078	61.185	32.953	28.232	
329.564965280000	124.402	61.800	33.073	28.727	
329.571909720000	123.810	61.048	33.023	28.025	
329.578854170000	123.692	61.162	32.990	28.172	
329.585798610000	124.030	61.007	32.578	28.428	
329.592743060000	125.388	61.128	33.053	28.075	
329.599687500000	124.490	60.697	32.537	28.160	
329.606631940000	125.765	60.432	32.205	28.227	
329.613576390000	126.953	60.672	32.350	28.322	
329.620520830000	125.665	60.840	32.503	28.337	
329.627465280000	83.993	40.477	21.640	18.837	
329.634409720000	125.815	60.628	32.190	28.438	
329.641354170000	125.655	60.472	31.935	28.537	
329.648298610000	126.382	60.478	32.180	28.298	
329.655243060000	127.447	60.397	32.382	28.015	
329.662187500000	127.322	60.185	31.875	28.310	
329.669131940000	127.765	59.850	31.680	28.170	
329.676076390000	129.335	60.673	32.253	28.420	
329.683020830000	129.617	59.712	31.880	27.832	
329.689965280000	130.190	59.670	31.907	27.763	
329.696909720000	129.412	60.167	31.947	28.220	
329.703854170000	128.458	60.020	31.677	28.343	
329.710798610000	129.717	60.303	31.913	28.390	
329.717743060000	129.682	58.753	30.875	27.878	
329.724687500000	129.940	59.183	31.362	27.822	
329.731631940000	130.437	59.063	31.208	27.855	
329.738576390000	129.353	58.968	31.128	27.840	
329.745520830000	130.340	58.390	30.735	27.655	
329.752465280000	86.920	38.953	20.600	18.353	
329.759409720000	128.482	58.870	31.295	27.575	
329.766354170000	131.687	56.908	30.582	26.327	
329.773298610000	133.103	56.990	30.895	26.095	
329.780243060000	130.147	58.797	31.737	27.060	
329.787187500000	128.637	58.755	31.068	27.687	
329.794131940000	129.033	58.870	31.145	27.725	
329.801076390000	129.078	59.355	31.308	28.047	
329.808020830000	129.263	60.105	31.450	28.655	
329.814965280000	128.283	58.940	31.033	27.907	
329.821909720000	128.117	57.932	30.607	27.325	
329.828854170000	130.413	58.257	30.572	27.685	
329.835798610000	131.468	58.590	31.043	27.547	
329.842743060000	131.928	57.893	30.422	27.472	
329.849687500000	131.288	56.613	29.508	27.105	
329.856631940000	132.390	53.370	27.542	25.828	
329.863576390000	132.805	48.203	24.688	23.515	
329.870520830000	131.635	40.578	20.470	20.108	
329.877465280000	83.997	22.138	11.008	11.130	
329.884409720000	124.138	24.128	11.708	12.420	
329.891354170000	118.205	17.300	8.185	9.115	
329.898298610000	114.492	12.738	6.057	6.682	
329.905243060000	110.332	9.405	4.368	5.037	
329.912187500000	106.177	7.122	3.248	3.873	
329.919131940000	103.108	5.653	2.615	3.038	
329.926076390000	99.713	4.528	1.970	2.558	
329.933020830000	96.128	3.490	1.552	1.938	
329.939965280000	92.303	2.818	1.260	1.558	
329.946909720000	89.023	2.182	0.875	1.307	
329.953865740000	85.424	1.712	0.737	0.975	
329.960810190000	82.268	1.417	0.580	0.837	
329.967754630000	79.618	1.180	0.475	0.705	
329.974699070000	76.125	0.945	0.405	0.540	
329.981643520000	74.387	0.847	0.297	0.550	
329.988622690000	72.181	0.725	0.267	0.458	
329.995578700000	70.469	0.659	0.208	0.451	
330.002523150000	46.558	0.417	0.173	0.243	
330.009502310000	68.897	0.474	0.179	0.295	
330.016446760000	68.828	0.490	0.182	0.308	
330.023391200000	90.533	32.807	16.127	16.680	
330.030335650000	132.262	52.947	27.518	25.428	
330.037280090000	131.948	54.252	28.785	25.467	
330.044224540000	132.700	55.648	29.680	25.968	
330.051168980000	132.698	55.700	29.430	26.270	
330.058113430000	133.470	55.662	29.373	26.288	
330.065057870000	133.183	55.625	29.507	26.118	
330.072002310000	131.557	55.667	28.958	26.708	
330.078946760000	132.713	55.657	29.652	26.005	
330.085891200000	133.050	55.997	29.460	26.537	
330.092835650000	131.975	55.293	29.183	26.110	
330.099780090000	132.188	55.640	29.388	26.252	
330.106724540000	131.258	55.437	29.240	26.197	
330.113668980000	131.977	55.688	29.377	26.312	
330.120613430000	133.127	55.512	29.483	26.028	
330.127557870000	88.045	36.902	19.685	17.217	
330.134502310000	130.527	56.042	29.457	26.585	
330.141446760000	132.405	55.697	29.095	26.602	
330.148391200000	132.507	55.728	29.423	26.305	
330.155335650000	131.222	55.303	29.168	26.135	
330.162280090000	130.783	55.385	29.067	26.318	
330.169224540000	131.507	56.055	29.510	26.545	
330.176168980000	130.858	55.853	29.825	26.028	
330.183113430000	130.250	56.030	29.505	26.525	
330.190057870000	129.867	56.010	29.423	26.587	
330.197002310000	130.200	55.352	29.187	26.165	
330.203946760000	129.802	55.418	29.255	26.163	
330.210891200000	129.642	55.028	29.278	25.750	
330.217835650000	130.008	55.760	29.523	26.237	
330.224780090000	130.237	55.900	29.387	26.513	
330.231724540000	129.637	55.618	29.307	26.312	
330.238668980000	130.708	56.452	29.433	27.018	
330.245613430000	129.220	56.065	29.463	26.602	
330.252557870000	84.900	36.663	19.092	17.572	
330.259502310000	129.672	55.520	29.350	26.170	
330.266446760000	130.373	55.560	29.280	26.280	
330.273391200000	129.740	55.480	29.265	26.215	
330.280335650000	129.777	55.807	29.333	26.473	
330.287280090000	130.175	56.057	29.927	26.130	
330.294224540000	129.758	55.697	29.350	26.347	
330.301168980000	129.460	55.738	29.358	26.380	
330.308113430000	129.988	55.715	29.107	26.608	
330.315057870000	129.535	55.732	29.458	26.273	
330.322002310000	129.552	55.673	29.233	26.440	
330.328946760000	129.363	56.368	29.745	26.623	
330.335891200000	129.817	56.153	30.003	26.150	
330.342835650000	128.935	55.533	29.303	26.230	
330.349780090000	128.437	55.625	29.445	26.180	
330.356724540000	129.705	56.617	29.902	26.715	
330.363668980000	128.535	56.465	30.043	26.422	
330.370613430000	129.260	55.865	29.845	26.020	
330.377557870000	85.725	37.072	19.520	17.552	
330.384502310000	128.403	55.698	29.510	26.188	
330.391446760000	128.803	55.342	29.308	26.033	
330.398391200000	128.593	55.827	29.430	26.397	
330.405335650000	129.373	55.668	29.472	26.197	
330.412280090000	129.322	56.035	29.758	26.277	
330.419224540000	128.715	55.337	29.178	26.158	
330.426168980000	129.508	55.705	29.268	26.437	
330.433113430000	129.635	56.487	29.728	26.758	
330.440057870000	128.858	56.132	29.528	26.603	
330.447002310000	127.693	55.795	29.338	26.457	
330.453946760000	129.323	56.150	29.915	26.235	
330.460891200000	129.573	55.988	29.567	26.422	
330.467835650000	129.142	55.940	29.705	26.235	
330.474780090000	129.682	55.742	29.543	26.198	
330.481724540000	129.770	55.457	29.388	26.068	
330.488668980000	129.583	56.068	29.845	26.223	
330.495613430000	130.082	55.725	29.430	26.295	
330.502557870000	85.670	36.885	19.512	17.373	
330.509502310000	130.565	56.308	29.993	26.315	
330.516446760000	130.512	55.182	29.317	25.865	
330.523391200000	130.685	55.562	29.225	26.337	
330.530335650000	130.132	56.002	29.645	26.357	
330.537280090000	129.597	56.190	29.988	26.202	
330.544224540000	129.597	55.918	29.387	26.532	
330.551168980000	130.408	55.718	29.428	26.290	
330.558113430000	129.920	55.670	29.285	26.385	
330.565057870000	130.063	56.173	29.672	26.502	
330.572002310000	129.913	56.110	29.543	26.567	
330.578946760000	128.053	55.692	29.548	26.143	
330.585891200000	127.710	55.503	29.252	26.252	
330.592835650000	128.562	55.725	29.155	26.570	
330.599780090000	129.043	55.757	29.182	26.575	
330.606724540000	129.007	55.892	29.408	26.483	
330.613668980000	128.788	56.798	29.922	26.877	
330.620613430000	126.272	55.698	29.122	26.577	
330.627557870000	84.245	36.973	19.443	17.530	
330.634502310000	127.650	55.637	29.168	26.468	
330.641446760000	128.203	55.987	29.443	26.543	
330.648391200000	128.557	55.792	29.273	26.518	
330.655335650000	128.272	55.445	29.213	26.232	
330.662280090000	128.710	56.282	29.420	26.862	
330.669224540000	127.475	55.123	28.782	26.342	
330.676168980000	128.323	55.415	28.887	26.528	
330.683113430000	129.027	55.292	28.908	26.383	
330.690057870000	128.588	54.937	28.547	26.390	
330.697002310000	128.583	55.400	28.957	26.443	
330.703946760000	127.657	54.515	28.457	26.058	
330.710891200000	128.768	55.032	28.958	26.073	
330.717835650000	127.880	55.787	28.798	26.988	
330.724780090000	129.015	56.015	29.132	26.883	
330.731724540000	129.243	55.015	28.870	26.145	
330.738668980000	128.637	55.102	28.747	26.355	
330.745613430000	128.465	54.982	28.770	26.212	
330.752557870000	84.327	36.147	19.005	17.142	
330.759502310000	128.947	55.098	28.730	26.368	
330.766446760000	128.730	54.927	28.860	26.067	
330.773391200000	129.283	54.850	28.547	26.303	
330.780335650000	129.010	55.122	28.812	26.310	
330.787280090000	128.403	54.542	28.608	25.933	
330.794224540000	129.035	54.483	28.517	25.967	
330.801168980000	128.558	54.418	28.262	26.157	
330.808113430000	128.675	54.212	28.472	25.740	
330.815057870000	128.463	54.325	28.082	26.243	
330.822002310000	128.668	54.515	28.487	26.028	
330.828946760000	129.185	54.822	28.737	26.085	
330.835891200000	127.922	54.147	28.122	26.025	
330.842835650000	127.502	54.173	28.227	25.947	
330.849780090000	128.505	54.795	28.497	26.298	
330.856724540000	128.097	54.435	28.400	26.035	
330.863668980000	127.503	54.270	28.210	26.060	
330.870613430000	128.112	54.142	28.237	25.905	
330.877557870000	84.065	35.202	18.242	16.960	
330.884502310000	128.153	54.515	28.417	26.098	
330.891446760000	126.923	53.970	27.982	25.988	
330.898391200000	127.558	54.375	28.092	26.283	
330.905335650000	126.335	53.367	27.575	25.792	
330.912280090000	127.743	53.775	27.925	25.850	
330.919224540000	127.422	53.585	27.947	25.638	
330.926168980000	127.888	53.958	28.010	25.948	
330.933113430000	128.252	53.222	27.720	25.502	
330.940057870000	129.043	53.323	27.628	25.695	
330.947002310000	129.418	53.290	27.570	25.720	
330.953946760000	129.813	52.622	27.315	25.307	
330.960891200000	129.667	53.258	27.933	25.325	
330.967835650000	128.945	53.953	28.253	25.700	
330.974780090000	128.162	53.627	27.788	25.838	
330.981724540000	129.427	54.175	28.342	25.833	
330.988668980000	128.653	53.700	27.982	25.718	
330.995613430000	129.083	54.013	28.262	25.752	
331.002557870000	85.145	35.902	18.772	17.130	
331.009502310000	129.228	53.360	27.948	25.412	
331.016446760000	128.357	53.327	28.023	25.303	
331.023391200000	129.132	53.437	27.977	25.460	
331.030335650000	128.808	53.187	27.535	25.652	
331.037280090000	129.178	53.553	27.900	25.653	
331.044224540000	129.508	54.233	28.405	25.828	
331.051168980000	129.183	54.130	28.130	26.000	
331.058113430000	127.865	53.760	27.675	26.085	
331.065057870000	128.183	53.718	27.973	25.745	
331.072002310000	127.962	53.860	27.865	25.995	
331.078946760000	127.028	53.553	27.750	25.803	
331.085891200000	127.433	53.762	27.468	26.293	
331.092835650000	127.658	53.957	27.993	25.963	
331.099780090000	126.293	53.478	27.778	25.700	
331.106724540000	127.925	54.260	28.522	25.738	
331.113668980000	127.843	53.997	28.113	25.883	
331.120613430000	126.630	53.433	27.712	25.722	
331.127557870000	83.355	35.508	18.510	16.998	
331.134502310000	127.805	53.897	27.837	26.060	
331.141446760000	127.330	54.060	27.858	26.202	
331.148391200000	127.678	54.095	28.242	25.853	
331.155335650000	127.490	53.795	27.875	25.920	
331.162280090000	127.483	53.802	27.953	25.848	
331.169224540000	127.498	54.018	28.143	25.875	
331.176168980000	127.512	54.480	28.417	26.063	
331.183113430000	127.472	54.092	28.088	26.003	
331.190057870000	127.447	54.393	28.568	25.825	
331.197002310000	127.637	54.683	28.455	26.228	
331.203946760000	128.210	54.688	28.478	26.210	
331.210891200000	127.700	54.330	28.317	26.013	
331.217835650000	127.777	54.842	28.747	26.095	
331.224780090000	127.458	54.858	28.673	26.185	
331.231724540000	126.743	54.340	28.115	26.225	
331.238668980000	127.833	55.128	28.685	26.443	
331.245613430000	127.580	54.978	28.722	26.257	
331.252557870000	84.142	36.438	18.878	17.560	
331.259502310000	127.608	55.725	29.400	26.325	
331.266446760000	127.653	55.440	28.602	26.838	
331.273391200000	126.538	54.765	28.510	26.255	
331.280335650000	126.643	54.995	28.592	26.403	
331.287280090000	127.725	55.447	29.097	26.350	
331.294224540000	126.487	55.347	28.985	26.362	
331.301168980000	127.547	55.413	28.997	26.417	
331.308113430000	126.547	55.183	29.030	26.153	
331.315057870000	127.297	55.390	28.922	26.468	
331.322002310000	126.952	55.660	29.017	26.643	
331.328946760000	126.813	55.967	29.568	26.398	
331.335891200000	126.322	55.318	28.785	26.533	
331.342835650000	126.618	55.588	29.168	26.420	
331.349780090000	126.763	55.885	29.212	26.673	
331.356724540000	126.267	55.727	29.248	26.478	
331.363668980000	127.058	56.008	29.160	26.848	
331.370613430000	127.012	55.277	28.885	26.392	
331.377557870000	84.492	36.833	19.272	17.562	
331.384502310000	126.887	55.555	29.027	26.528	
331.391446760000	126.005	55.397	29.162	26.235	
331.398391200000	126.965	56.265	29.395	26.870	
331.405335650000	127.455	55.613	29.433	26.180	
331.412280090000	128.213	55.795	29.427	26.368	
331.419224540000	127.643	55.495	29.378	26.117	
331.426168980000	127.963	55.507	29.462	26.045	
331.433113430000	128.145	56.588	30.115	26.473	
331.440057870000	128.398	56.050	29.885	26.165	
331.447002310000	128.660	55.618	29.347	26.272	
331.453946760000	127.917	55.618	29.178	26.440	
331.460891200000	127.217	56.280	29.720	26.560	
331.467835650000	127.100	55.495	29.188	26.307	
331.474780090000	127.957	55.637	29.552	26.085	
331.481724540000	127.422	55.197	29.492	25.705	
331.488668980000	128.908	55.908	29.757	26.152	
331.495613430000	129.607	55.867	29.502	26.365	
331.502557870000	84.337	36.148	19.188	16.960	
331.509502310000	129.120	55.992	29.495	26.497	
331.516446760000	129.397	55.690	29.688	26.002	
331.523391200000	129.525	55.813	29.573	26.240	
331.530335650000	127.917	55.715	29.468	26.247	
331.537280090000	129.168	56.778	30.175	26.603	
331.544224540000	127.977	55.808	29.645	26.163	
331.551168980000	127.735	56.032	29.667	26.365	
331.558113430000	128.283	55.693	29.405	26.288	
331.565057870000	129.218	55.793	29.897	25.897	
331.572002310000	129.743	56.415	30.180	26.235	
331.578946760000	129.388	56.027	29.728	26.298	
331.585891200000	129.753	56.562	29.722	26.840	
331.592835650000	129.625	56.053	29.813	26.240	
331.599780090000	128.615	56.055	29.650	26.405	
331.606724540000	127.778	55.928	29.540	26.388	
331.613668980000	128.108	56.015	29.523	26.492	
331.620613430000	128.017	56.082	29.613	26.468	
331.627557870000	85.113	36.985	19.670	17.315	
331.634502310000	129.438	56.790	30.030	26.760	
331.641446760000	129.282	56.300	29.695	26.605	
331.648391200000	129.062	56.493	29.850	26.643	
331.655335650000	128.147	56.295	29.757	26.538	
331.662280090000	127.735	56.603	29.993	26.610	
331.669224540000	127.490	56.178	29.657	26.522	
331.676168980000	127.637	56.073	29.538	26.535	
331.683113430000	127.292	56.563	29.792	26.772	
331.690057870000	127.545	56.518	29.807	26.712	
331.697002310000	125.965	56.145	29.635	26.510	
331.703946760000	126.482	56.755	29.965	26.790	
331.710891200000	127.412	57.217	30.130	27.087	
331.717835650000	128.185	56.053	29.452	26.602	
331.724780090000	126.495	55.770	29.478	26.292	
331.731724540000	127.548	56.722	29.853	26.868	
331.738668980000	128.113	56.992	30.117	26.875	
331.745613430000	126.162	56.545	29.607	26.938	
331.752557870000	83.325	37.455	19.687	17.768	
331.759502310000	128.223	56.440	29.818	26.622	
331.766446760000	127.693	56.310	29.525	26.785	
331.773391200000	127.840	56.267	29.862	26.405	
331.780335650000	128.182	56.362	30.152	26.210	
331.787280090000	128.558	56.425	29.808	26.617	
331.794224540000	128.030	56.598	29.877	26.722	
331.801168980000	128.013	56.108	29.753	26.355	
331.808113430000	128.440	56.687	29.825	26.862	
331.815057870000	128.323	56.427	29.888	26.538	
331.822002310000	128.433	56.687	29.693	26.993	
331.828946760000	129.288	56.453	29.462	26.992	
331.835891200000	129.013	56.700	29.673	27.027	
331.842835650000	126.955	56.297	29.805	26.492	
331.849780090000	127.935	56.350	29.963	26.387	
331.856724540000	127.772	56.818	29.773	27.045	
331.863668980000	127.463	56.957	30.077	26.880	
331.870613430000	127.980	56.367	29.698	26.668	
331.877557870000	83.108	37.178	19.637	17.542	
331.884502310000	128.550	56.485	30.003	26.482	
331.891446760000	128.515	56.275	29.627	26.648	
331.898391200000	128.160	55.758	29.515	26.243	
331.905335650000	128.113	55.975	29.655	26.320	
331.912280090000	128.792	56.393	29.517	26.877	
331.919224540000	128.277	56.223	29.460	26.763	
331.926168980000	128.138	56.310	29.602	26.708	
331.933113430000	127.873	56.135	29.470	26.665	
331.940057870000	128.627	56.447	29.807	26.640	
331.947002310000	128.450	56.303	29.625	26.678	
331.953946760000	128.240	56.188	29.505	26.683	
331.960891200000	128.300	55.980	29.650	26.330	
331.967835650000	127.900	56.078	29.845	26.233	
331.974780090000	128.337	56.477	29.945	26.532	
331.981724540000	127.777	56.152	29.793	26.358	
331.988668980000	127.642	56.335	29.457	26.878	
331.995613430000	128.420	56.202	29.508	26.693	
332.002557870000	83.828	36.432	19.277	17.155	
332.009502310000	129.200	56.217	29.788	26.428	
332.016446760000	129.087	56.405	29.852	26.553	
332.023391200000	128.975	56.272	29.482	26.790	
332.030335650000	127.217	56.033	29.587	26.447	
332.037280090000	128.145	56.257	29.797	26.460	
332.044224540000	129.572	56.280	29.638	26.642	
332.051168980000	128.893	56.793	29.543	27.250	
332.058113430000	128.460	56.305	29.765	26.540	
332.065057870000	129.005	56.608	29.975	26.633	
332.072002310000	129.637	56.552	29.895	26.657	
332.078946760000	128.972	56.343	29.790	26.553	
332.085891200000	129.395	55.842	29.790	26.052	
332.092835650000	129.873	56.975	30.012	26.963	
332.099780090000	129.235	56.402	30.057	26.345	
332.106724540000	129.405	56.310	29.827	26.483	
332.113668980000	129.247	56.700	30.022	26.678	
332.120613430000	129.303	56.562	30.193	26.368	
332.127557870000	84.802	37.412	19.615	17.797	
332.134502310000	128.793	57.382	30.617	26.765	
332.141446760000	128.750	57.253	30.238	27.015	
332.148391200000	128.448	56.655	29.980	26.675	
332.155335650000	129.513	57.312	30.373	26.938	
332.162280090000	129.240	56.638	30.032	26.607	
332.169224540000	129.008	57.287	30.575	26.712	
332.176168980000	128.282	57.048	30.320	26.728	
332.183113430000	126.673	56.547	29.642	26.905	
332.190057870000	127.180	56.928	30.130	26.798	
332.197002310000	128.015	57.245	30.482	26.763	
332.203946760000	127.452	57.083	30.220	26.863	
332.210891200000	127.227	56.920	30.122	26.798	
332.217835650000	127.147	57.227	30.333	26.893	
332.224780090000	127.153	57.248	30.242	27.007	
332.231724540000	127.455	57.308	30.215	27.093	
332.238668980000	127.717	56.680	30.108	26.572	
332.245613430000	127.675	57.015	30.317	26.698	
332.252557870000	83.842	37.438	19.747	17.692	
332.259502310000	128.288	57.405	30.352	27.053	
332.266446760000	127.955	57.248	30.188	27.060	
332.273391200000	127.405	56.902	30.178	26.723	
332.280335650000	126.715	57.440	30.363	27.077	
332.287280090000	127.272	57.890	30.867	27.023	
332.294224540000	127.235	57.643	30.620	27.023	
332.301168980000	127.605	57.245	30.278	26.967	
332.308113430000	126.657	57.010	29.933	27.077	
332.315057870000	127.403	57.178	30.145	27.033	
332.322002310000	127.482	57.365	30.213	27.152	
332.328946760000	126.652	57.150	30.393	26.757	
332.335891200000	127.580	57.567	30.683	26.883	
332.342835650000	127.035	57.035	30.327	26.708	
332.349780090000	127.750	56.943	29.940	27.003	
332.356724540000	128.408	57.560	30.565	26.995	
332.363668980000	128.175	57.453	30.562	26.892	
332.370613430000	128.472	57.462	30.462	27.000	
332.377557870000	83.862	37.647	19.968	17.678	
332.384502310000	127.665	57.368	30.495	26.873	
332.391446760000	127.767	57.637	30.588	27.048	
332.398391200000	126.257	56.693	30.060	26.633	
332.405335650000	127.360	57.662	30.473	27.188	
332.412280090000	127.757	56.915	30.265	26.650	
332.419224540000	128.010	57.293	30.377	26.917	
332.426168980000	127.217	57.343	30.378	26.965	
332.433113430000	127.977	58.020	30.692	27.328	
332.440057870000	126.825	57.307	30.535	26.772	
332.447002310000	126.660	57.887	30.475	27.412	
332.453946760000	126.265	57.160	30.130	27.030	
332.460891200000	126.440	57.533	30.438	27.095	
332.467835650000	127.452	57.700	30.533	27.167	
332.474780090000	127.057	57.920	30.842	27.078	
332.481724540000	126.398	57.740	30.607	27.133	
332.488668980000	126.018	57.263	30.388	26.875	
332.495613430000	125.767	57.430	30.227	27.203	
332.502557870000	83.147	38.137	20.103	18.033	
332.509502310000	127.863	57.345	30.337	27.008	
332.516446760000	128.092	57.627	30.957	26.670	
332.523391200000	127.563	57.215	30.350	26.865	
332.530335650000	127.628	57.835	30.618	27.217	
332.537280090000	127.553	58.132	30.687	27.445	
332.544224540000	126.968	57.642	30.642	27.000	
332.551168980000	127.682	57.897	30.462	27.435	
332.558113430000	127.578	57.598	30.538	27.060	
332.565057870000	127.518	57.510	30.290	27.220	
332.572002310000	128.147	58.157	30.677	27.480	
332.578946760000	127.648	57.592	30.507	27.085	
332.585891200000	128.527	57.850	30.380	27.470	
332.592835650000	128.260	57.380	30.240	27.140	
332.599780090000	129.403	58.390	31.002	27.388	
332.606724540000	128.865	57.353	30.115	27.238	
332.613668980000	129.165	57.778	30.637	27.142	
332.620613430000	129.592	57.988	30.872	27.117	
332.627557870000	84.837	38.095	20.292	17.803	
332.634502310000	129.317	57.778	30.827	26.952	
332.641446760000	129.142	57.332	30.382	26.950	
332.648391200000	129.777	57.603	30.480	27.123	
332.655335650000	130.538	57.922	30.385	27.537	
332.662280090000	129.417	58.097	30.612	27.485	
332.669224540000	129.177	57.930	30.798	27.132	
332.676168980000	127.578	57.480	30.642	26.838	
332.683113430000	129.298	58.297	30.677	27.620	
332.690057870000	128.238	57.830	30.923	26.907	
332.697002310000	129.622	57.952	30.667	27.285	
332.703946760000	128.880	57.710	30.647	27.063	
332.710891200000	129.057	58.142	31.005	27.137	
332.717835650000	129.472	57.777	30.437	27.340	
332.724780090000	129.515	57.508	30.730	26.778	
332.731724540000	129.038	57.800	30.565	27.235	
332.738668980000	130.113	57.988	30.570	27.418	
332.745613430000	130.237	58.150	30.882	27.268	
332.752557870000	85.760	37.868	20.227	17.642	
332.759502310000	129.752	57.980	30.728	27.252	
332.766446760000	129.152	57.843	30.665	27.178	
332.773391200000	129.032	57.877	30.625	27.252	
332.780335650000	129.875	57.873	30.857	27.017	
332.787280090000	129.238	57.720	30.620	27.100	
332.794224540000	129.817	57.965	30.740	27.225	
332.801168980000	129.133	58.182	30.752	27.430	
332.808113430000	129.432	58.108	30.485	27.623	
332.815057870000	129.690	58.008	30.662	27.347	
332.822002310000	128.970	57.743	30.490	27.253	
332.828946760000	129.565	57.567	30.610	26.957	
332.835891200000	130.172	58.230	30.917	27.313	
332.842835650000	130.097	57.815	30.747	27.068	
332.849780090000	129.425	57.385	30.672	26.713	
332.856724540000	130.037	57.540	30.337	27.203	
332.863668980000	129.043	57.713	30.528	27.185	
332.870613430000	128.845	57.968	30.748	27.220	
332.877557870000	84.837	37.842	19.905	17.937	
332.884502310000	129.023	58.043	31.047	26.997	
332.891446760000	127.918	57.413	30.440	26.973	
332.898391200000	127.993	57.855	30.818	27.037	
332.905335650000	128.188	57.858	30.688	27.170	
332.912280090000	127.900	57.787	30.623	27.163	
332.919224540000	126.937	56.965	30.200	26.765	
332.926168980000	128.260	57.497	30.725	26.772	
332.933113430000	128.675	57.830	30.783	27.047	
332.940057870000	129.162	58.333	30.977	27.357	
332.947002310000	128.555	57.858	30.655	27.203	
332.953946760000	127.170	57.083	30.363	26.720	
332.960891200000	127.908	57.873	30.607	27.267	
332.967835650000	127.752	57.582	30.733	26.848	
332.974780090000	126.898	57.942	30.937	27.005	
332.981724540000	126.637	58.485	30.930	27.555	
332.988668980000	126.388	58.013	30.443	27.570	
332.995613430000	128.695	58.258	30.953	27.305	
333.002557870000	84.937	38.127	20.078	18.048	
333.009502310000	127.618	57.768	30.425	27.343	
333.016446760000	127.840	58.027	30.880	27.147	
333.023391200000	128.337	57.533	30.412	27.122	
333.030335650000	128.370	57.850	30.763	27.087	
333.037280090000	129.115	58.155	31.053	27.102	
333.044224540000	127.685	57.497	30.583	26.913	
333.051168980000	128.062	57.552	30.927	26.625	
333.058113430000	127.687	57.693	30.605	27.088	
333.065057870000	127.668	57.785	30.783	27.002	
333.072002310000	128.185	57.400	30.482	26.918	
333.078946760000	127.793	57.798	30.928	26.870	
333.085891200000	128.155	58.238	31.225	27.013	
333.092835650000	127.533	57.942	31.035	26.907	
333.099780090000	128.063	58.483	31.283	27.200	
333.106724540000	128.025	57.878	31.035	26.843	
333.113668980000	128.468	58.280	31.095	27.185	
333.120613430000	128.385	58.190	30.920	27.270	
333.127557870000	83.767	38.038	20.138	17.900	
333.134502310000	127.132	57.892	30.658	27.233	
333.141446760000	128.077	58.877	31.288	27.588	
333.148391200000	127.913	58.418	31.267	27.152	
333.155335650000	127.503	58.658	31.045	27.613	
333.162280090000	126.998	58.520	30.823	27.697	
333.169224540000	127.077	58.417	31.228	27.188	
333.176168980000	127.110	58.423	31.107	27.317	
333.183113430000	127.198	58.447	31.302	27.145	
333.190057870000	127.560	58.590	31.063	27.527	
333.197002310000	126.840	58.555	30.998	27.557	
333.203946760000	126.132	58.683	31.078	27.605	
333.210891200000	126.535	59.187	31.290	27.897	
333.217835650000	126.702	59.457	31.753	27.703	
333.224780090000	127.413	59.388	31.602	27.787	
333.231724540000	126.393	59.028	31.420	27.608	
333.238668980000	126.888	58.477	30.968	27.508	
333.245613430000	126.582	58.682	31.332	27.350	
333.252557870000	83.620	38.610	20.487	18.123	
333.259502310000	126.740	58.662	31.163	27.498	
333.266446760000	127.377	59.482	31.918	27.563	
333.273391200000	126.758	59.497	31.538	27.958	
333.280335650000	127.497	58.928	31.520	27.408	
333.287280090000	128.032	59.303	31.660	27.643	
333.294224540000	127.995	58.903	31.245	27.658	
333.301168980000	127.077	58.767	31.162	27.605	
333.308113430000	127.608	58.145	30.883	27.262	
333.315057870000	127.528	58.543	31.498	27.045	
333.322002310000	127.127	58.390	31.333	27.057	
333.328946760000	127.408	59.110	31.623	27.487	
333.335891200000	128.788	59.368	31.587	27.782	
333.342835650000	128.547	59.327	31.740	27.587	
333.349780090000	128.767	58.933	31.133	27.800	
333.356724540000	127.508	58.742	31.333	27.408	
333.363668980000	127.092	59.038	31.427	27.612	
333.370613430000	126.227	58.837	31.505	27.332	
333.377557870000	82.925	38.958	20.615	18.343	
333.384502310000	127.902	59.373	31.505	27.868	
333.391446760000	128.257	59.272	31.292	27.980	
333.398391200000	127.953	59.238	31.848	27.390	
333.405335650000	127.543	58.893	31.377	27.517	
333.412280090000	127.992	58.937	31.595	27.342	
333.419224540000	127.848	59.087	31.665	27.422	
333.426168980000	128.712	59.305	31.712	27.593	
333.433113430000	127.603	59.107	31.787	27.320	
333.440057870000	128.017	59.172	31.757	27.415	
333.447002310000	129.047	59.437	31.805	27.632	
333.453946760000	129.337	58.507	31.312	27.195	
333.460891200000	128.400	58.327	31.202	27.125	
333.467835650000	128.082	58.945	31.492	27.453	
333.474780090000	128.930	58.613	31.275	27.338	
333.481724540000	128.980	58.922	31.348	27.573	
333.488668980000	128.657	59.445	31.862	27.583	
333.495613430000	129.613	59.790	31.772	28.018	
333.502557870000	85.547	39.228	20.885	18.343	
333.509502310000	128.878	59.263	31.555	27.708	
333.516446760000	128.313	59.205	31.638	27.567	
333.523391200000	128.253	58.393	31.252	27.142	
333.530335650000	128.973	59.827	31.862	27.965	
333.537280090000	129.045	59.510	31.605	27.905	
333.544224540000	128.192	58.787	31.435	27.352	
333.551168980000	129.428	59.637	31.727	27.910	
333.558113430000	128.973	58.907	31.842	27.065	
333.565057870000	129.902	59.490	31.655	27.835	
333.572002310000	129.465	59.027	31.427	27.600	
333.578946760000	130.123	59.292	31.607	27.685	
333.585891200000	129.642	58.973	31.268	27.705	
333.592835650000	128.820	58.847	31.178	27.668	
333.599780090000	128.142	58.705	31.163	27.542	
333.606724540000	129.642	59.458	31.667	27.792	
333.613668980000	130.063	59.093	31.418	27.675	
333.620613430000	129.253	58.983	31.718	27.265	
333.627557870000	85.242	39.485	21.135	18.350	
333.634502310000	130.282	58.847	31.275	27.572	
333.641446760000	130.177	59.805	31.698	28.107	
333.648391200000	129.737	59.605	31.260	28.345	
333.655335650000	127.513	58.922	31.167	27.755	
333.662280090000	128.803	59.272	31.270	28.002	
333.669224540000	129.933	60.082	31.595	28.487	
333.676168980000	127.913	60.057	32.168	27.888	
333.683113430000	128.890	59.690	31.735	27.955	
333.690057870000	128.712	59.452	31.543	27.908	
333.697002310000	128.270	59.038	31.027	28.012	
333.703946760000	128.533	59.463	31.630	27.833	
333.710891200000	129.070	59.670	31.843	27.827	
333.717835650000	128.180	58.952	31.203	27.748	
333.724780090000	129.692	59.843	31.665	28.178	
333.731724540000	129.622	59.357	31.298	28.058	
333.738668980000	129.443	59.223	31.668	27.555	
333.745613430000	129.530	59.603	31.383	28.220	
333.752557870000	85.998	39.170	20.737	18.433	
333.759502310000	129.757	59.027	31.055	27.972	
333.766446760000	130.903	59.737	31.903	27.833	
333.773391200000	130.480	59.118	31.378	27.740	
333.780335650000	130.597	59.585	31.520	28.065	
333.787280090000	130.225	59.188	31.183	28.005	
333.794224540000	131.175	59.393	31.722	27.672	
333.801168980000	129.692	58.662	31.183	27.478	
333.808113430000	130.202	58.800	31.283	27.517	
333.815057870000	130.603	58.758	31.172	27.587	
333.822002310000	130.443	59.080	31.392	27.688	
333.828946760000	130.267	58.570	31.268	27.302	
333.835891200000	129.932	58.932	31.300	27.632	
333.842835650000	130.460	58.823	31.200	27.623	
333.849780090000	129.363	58.070	30.985	27.085	
333.856724540000	130.368	58.838	31.345	27.493	
333.863668980000	130.455	59.167	31.342	27.825	
333.870613430000	130.170	58.995	31.457	27.538	
333.877557870000	85.387	38.562	20.612	17.950	
333.884502310000	130.787	59.565	31.605	27.960	
333.891446760000	129.930	59.053	31.245	27.808	
333.898391200000	129.460	58.638	31.117	27.522	
333.905335650000	129.345	59.202	31.517	27.685	
333.912280090000	129.480	59.205	31.577	27.628	
333.919224540000	130.260	59.713	31.807	27.907	
333.926168980000	129.413	58.573	31.052	27.522	
333.933113430000	129.118	59.035	31.183	27.852	
333.940057870000	128.660	58.923	31.535	27.388	
333.947002310000	129.072	59.695	31.510	28.185	
333.953946760000	128.547	58.735	31.230	27.505	
333.960891200000	128.617	59.157	31.303	27.853	
333.967835650000	128.637	58.682	31.255	27.427	
333.974780090000	128.573	58.300	30.788	27.512	
333.981724540000	128.870	58.582	31.020	27.562	
333.988668980000	128.657	59.252	31.515	27.737	
333.995613430000	129.277	58.447	31.037	27.410	
334.002557870000	86.002	38.888	20.695	18.193	
334.009502310000	129.312	58.600	31.353	27.247	
334.016446760000	129.078	58.895	31.242	27.653	
334.023391200000	128.480	58.272	30.973	27.298	
334.030335650000	128.828	58.782	31.298	27.483	
334.037280090000	128.333	58.642	31.270	27.372	
334.044224540000	128.643	59.122	31.332	27.790	
334.051168980000	129.270	58.887	31.428	27.458	
334.058113430000	129.432	59.007	31.287	27.720	
334.065057870000	128.752	58.615	31.152	27.463	
334.072002310000	128.798	58.915	31.405	27.510	
334.078946760000	128.317	59.392	31.222	28.170	
334.085891200000	127.155	58.355	30.998	27.357	
334.092835650000	128.088	59.097	31.332	27.765	
334.099780090000	128.210	59.405	31.973	27.432	
334.106724540000	128.578	59.470	31.803	27.667	
334.113668980000	128.627	59.375	31.698	27.677	
334.120613430000	128.120	59.377	31.770	27.607	
334.127557870000	84.492	38.752	20.753	17.998	
334.134502310000	127.463	59.170	31.362	27.808	
334.141446760000	127.193	58.795	31.477	27.318	
334.148391200000	128.380	59.048	31.437	27.612	
334.155335650000	127.768	59.277	31.440	27.837	
334.162280090000	127.228	59.215	31.612	27.603	
334.169224540000	127.782	59.052	31.743	27.308	
334.176168980000	127.082	59.540	31.763	27.777	
334.183113430000	128.655	59.408	31.647	27.762	
334.190057870000	128.808	59.523	31.642	27.882	
334.197002310000	129.057	59.515	31.955	27.560	
334.203946760000	128.053	59.533	31.680	27.853	
334.210891200000	127.937	59.188	31.340	27.848	
334.217835650000	127.535	60.005	31.942	28.063	
334.224780090000	128.227	59.477	31.885	27.592	
334.231724540000	128.665	59.940	31.998	27.942	
334.238668980000	127.677	59.977	31.930	28.047	
334.245613430000	127.192	60.097	31.907	28.190	
334.252557870000	84.217	39.848	21.132	18.717	
334.259502310000	127.218	60.112	32.202	27.910	
334.266446760000	127.428	60.053	31.938	28.115	
334.273391200000	127.615	59.805	32.055	27.750	
334.280335650000	129.377	59.497	31.638	27.858	
334.287280090000	128.698	60.172	32.262	27.910	
334.294224540000	127.967	59.792	31.820	27.972	
334.301168980000	129.102	59.825	31.855	27.970	
334.308113430000	129.208	59.435	31.833	27.602	
334.315057870000	129.238	59.660	31.722	27.938	
334.322002310000	129.207	60.130	32.312	27.818	
334.328946760000	129.103	59.918	31.758	28.160	
334.335891200000	128.880	59.668	31.975	27.693	
334.342835650000	129.738	59.872	31.762	28.110	
334.349780090000	129.908	60.672	32.348	28.323	
334.356724540000	129.073	59.993	31.987	28.007	
334.363668980000	129.067	59.613	31.712	27.902	
334.370613430000	129.030	60.375	32.247	28.128	
334.377557870000	84.238	39.573	21.230	18.343	
334.384502310000	129.400	60.393	32.223	28.170	
334.391446760000	129.457	60.015	31.972	28.043	
334.398391200000	129.197	60.242	32.375	27.867	
334.405335650000	129.832	60.362	32.273	28.088	
334.412280090000	129.992	60.662	32.342	28.320	
334.419224540000	129.353	59.933	31.818	28.115	
334.426168980000	129.838	60.073	32.120	27.953	
334.433113430000	129.395	60.030	31.922	28.108	
334.440057870000	128.543	60.065	32.132	27.933	
334.447002310000	127.903	59.632	31.708	27.923	
334.453946760000	129.107	60.172	32.122	28.050	
334.460891200000	130.272	60.305	32.090	28.215	
334.467835650000	129.425	59.677	31.883	27.793	
334.474780090000	128.410	60.067	32.155	27.912	
334.481724540000	128.743	60.580	32.320	28.260	
334.488668980000	129.600	59.658	31.820	27.838	
334.495613430000	130.282	60.120	32.247	27.873	
334.502557870000	85.497	39.340	20.863	18.477	
334.509502310000	129.817	60.200	32.178	28.022	
334.516446760000	128.987	60.480	32.485	27.995	
334.523391200000	128.732	60.202	32.112	28.090	
334.530335650000	129.940	60.888	32.405	28.483	
334.537280090000	129.673	59.778	31.872	27.907	
334.544224540000	130.167	59.847	31.722	28.125	
334.551168980000	129.142	60.163	31.915	28.248	
334.558113430000	130.357	59.870	31.967	27.903	
334.565057870000	130.382	60.233	32.195	28.038	
334.572002310000	130.213	60.602	32.272	28.330	
334.578946760000	128.752	60.555	32.280	28.275	
334.585891200000	128.617	60.227	31.818	28.408	
334.592835650000	129.485	60.165	31.928	28.237	
334.599780090000	129.962	60.795	32.318	28.477	
334.606724540000	129.625	60.600	32.103	28.497	
334.613668980000	129.152	60.240	31.782	28.458	
334.620613430000	129.480	60.612	32.418	28.193	
334.627557870000	85.670	39.723	21.108	18.615	
334.634502310000	130.333	60.428	31.820	28.608	
334.641446760000	129.425	60.307	31.943	28.363	
334.648391200000	129.660	60.008	31.753	28.255	
334.655335650000	130.157	60.683	32.382	28.302	
334.662280090000	130.513	60.373	31.885	28.488	
334.669224540000	130.483	59.990	31.805	28.185	
334.676168980000	130.013	60.023	31.833	28.190	
334.683113430000	129.893	60.758	32.287	28.472	
334.690057870000	129.298	59.738	31.520	28.218	
334.697002310000	130.517	59.925	31.923	28.002	
334.703946760000	130.387	60.520	32.355	28.165	
334.710891200000	130.355	60.478	31.900	28.578	
334.717835650000	130.560	60.463	32.083	28.380	
334.724780090000	129.853	60.308	31.980	28.328	
334.731724540000	131.480	60.280	31.962	28.318	
334.738668980000	131.168	60.193	31.982	28.212	
334.745613430000	129.292	59.887	31.790	28.097	
334.752557870000	85.403	39.782	21.153	18.628	
334.759502310000	129.097	60.343	31.962	28.382	
334.766446760000	128.155	60.142	31.517	28.625	
334.773391200000	127.873	59.982	31.930	28.052	
334.780335650000	128.823	60.735	31.983	28.752	
334.787280090000	129.012	60.428	32.043	28.385	
334.794224540000	129.788	60.187	31.765	28.422	
334.801168980000	128.975	59.973	31.533	28.440	
334.808113430000	129.237	60.097	31.722	28.375	
334.815057870000	129.165	60.507	31.552	28.955	
334.822002310000	128.020	60.463	31.990	28.473	
334.828946760000	127.348	59.755	31.517	28.238	
334.835891200000	128.493	60.287	31.633	28.653	
334.842835650000	128.102	59.463	31.577	27.887	
334.849780090000	128.858	59.867	31.428	28.438	
334.856724540000	128.988	60.620	32.167	28.453	
334.863668980000	129.463	59.993	31.815	28.178	
334.870613430000	130.087	60.358	31.580	28.778	
334.877557870000	85.428	39.662	20.948	18.713	
334.884502310000	130.535	60.792	32.027	28.765	
334.891446760000	129.675	60.247	32.207	28.040	
334.898391200000	128.648	59.278	31.150	28.128	
334.905335650000	129.197	60.162	31.988	28.173	
334.912280090000	129.465	60.367	31.740	28.627	
334.919224540000	128.780	59.670	31.588	28.082	
334.926168980000	129.692	60.645	32.087	28.558	
334.933113430000	129.138	60.112	31.353	28.758	
334.940057870000	129.027	59.815	31.648	28.167	
334.947002310000	130.107	59.880	31.560	28.320	
334.953946760000	130.205	60.098	31.698	28.400	
334.960891200000	129.832	59.878	31.453	28.425	
334.967835650000	130.800	59.932	31.863	28.068	
334.974780090000	130.388	59.560	31.317	28.243	
334.981724540000	130.062	60.183	32.072	28.112	
334.988668980000	130.032	59.743	31.807	27.937	
334.995613430000	130.070	60.128	31.933	28.195	
335.002557870000	85.200	39.155	20.718	18.437	
335.009502310000	129.943	60.115	31.722	28.393	
335.016446760000	129.208	59.027	31.122	27.905	
335.023391200000	129.530	60.158	31.797	28.362	
335.030335650000	129.668	60.255	32.163	28.092	
335.037280090000	130.097	59.802	31.762	28.040	
335.044224540000	130.505	60.033	31.547	28.487	
335.051168980000	130.368	60.310	32.207	28.103	
335.058113430000	129.242	59.878	31.673	28.205	
335.065057870000	129.875	60.138	32.050	28.088	
335.072002310000	129.068	60.240	31.932	28.308	
335.078946760000	128.797	60.125	31.778	28.347	
335.085891200000	129.807	60.478	32.053	28.425	
335.092835650000	129.352	60.748	32.250	28.498	
335.099780090000	129.893	60.307	32.157	28.150	
335.106724540000	128.595	59.517	31.963	27.553	
335.113668980000	129.603	60.618	32.378	28.240	
335.120613430000	129.770	60.368	32.213	28.155	
335.127557870000	85.545	39.855	21.030	18.825	
335.134502310000	129.213	60.168	32.072	28.097	
335.141446760000	129.700	60.942	32.675	28.267	
335.148391200000	130.250	60.988	32.352	28.637	
335.155335650000	129.380	59.893	32.012	27.882	
335.162280090000	128.702	60.898	32.507	28.392	
335.169224540000	128.675	61.303	32.330	28.973	
335.176168980000	127.742	61.522	32.613	28.908	
335.183113430000	128.850	60.528	32.257	28.272	
335.190057870000	129.005	60.648	32.323	28.325	
335.197002310000	128.935	61.543	32.697	28.847	
335.203946760000	128.887	60.645	32.328	28.317	
335.210891200000	128.968	61.053	32.405	28.648	
335.217835650000	128.587	60.668	32.438	28.230	
335.224780090000	128.978	60.992	32.565	28.427	
335.231724540000	129.725	61.408	32.718	28.690	
335.238668980000	129.753	61.565	32.820	28.745	
335.245613430000	128.327	61.120	32.605	28.515	
335.252557870000	84.477	40.202	21.303	18.898	
335.259502310000	127.963	61.910	32.917	28.993	
335.266446760000	127.838	61.033	32.472	28.562	
335.273391200000	127.625	61.162	32.333	28.828	
335.280335650000	129.200	61.480	32.755	28.725	
335.287280090000	128.362	61.637	32.872	28.765	
335.294224540000	127.607	61.733	32.672	29.062	
335.301168980000	127.703	61.473	32.790	28.683	
335.308113430000	127.278	61.468	32.532	28.937	
335.315057870000	127.098	60.935	32.405	28.530	
335.322002310000	127.090	61.803	33.000	28.803	
335.328946760000	127.443	61.640	32.290	29.350	
335.335891200000	128.098	61.857	32.807	29.050	
335.342835650000	126.885	61.377	32.757	28.620	
335.349780090000	127.180	61.308	32.668	28.640	
335.356724540000	127.923	62.127	33.065	29.062	
335.363668980000	126.788	61.608	32.820	28.788	
335.370613430000	127.622	62.478	33.332	29.147	
335.377557870000	83.785	40.508	21.472	19.037	
335.384502310000	128.053	62.027	32.823	29.203	
335.391446760000	127.720	61.767	32.828	28.938	
335.398391200000	127.833	62.397	33.372	29.025	
335.405335650000	127.558	61.447	32.870	28.577	
335.412280090000	127.655	61.190	32.343	28.847	
335.419224540000	128.173	61.448	32.945	28.503	
335.426168980000	128.005	61.442	32.590	28.852	
335.433113430000	128.212	61.905	32.990	28.915	
335.440057870000	128.048	62.038	33.310	28.728	
335.447002310000	127.027	61.837	32.767	29.070	
335.453946760000	126.770	61.523	32.553	28.970	
335.460891200000	126.282	61.420	32.747	28.673	
335.467835650000	127.280	61.632	32.613	29.018	
335.474780090000	127.647	61.013	32.385	28.628	
335.481724540000	128.108	61.190	32.432	28.758	
335.488668980000	128.107	61.435	32.732	28.703	
335.495613430000	128.070	61.977	32.893	29.083	
335.502557870000	84.270	40.518	21.442	19.077	
335.509502310000	127.078	61.758	32.697	29.062	
335.516446760000	127.132	61.295	32.460	28.835	
335.523391200000	127.442	61.898	32.837	29.062	
335.530335650000	127.387	62.077	32.803	29.273	
335.537280090000	126.523	61.395	32.473	28.922	
335.544224540000	126.622	61.780	32.913	28.867	
335.551168980000	126.265	61.667	32.683	28.983	
335.558113430000	128.182	62.328	32.908	29.420	
335.565057870000	126.403	61.437	32.790	28.647	
335.572002310000	126.545	62.387	33.003	29.383	
335.578946760000	126.660	62.028	32.752	29.277	
335.585891200000	125.770	61.737	32.552	29.185	
335.592835650000	126.337	61.938	32.698	29.240	
335.599780090000	127.177	62.087	32.610	29.477	
335.606724540000	126.750	62.247	32.680	29.567	
335.613668980000	127.285	62.147	32.760	29.387	
335.620613430000	126.767	61.617	32.187	29.430	
335.627557870000	83.537	40.687	21.538	19.148	
335.634502310000	127.117	61.887	32.580	29.307	
335.641446760000	126.668	61.912	32.707	29.205	
335.648391200000	126.935	61.770	32.485	29.285	
335.655335650000	127.673	62.335	32.665	29.670	
335.662280090000	127.315	61.672	32.575	29.097	
335.669224540000	127.515	62.348	32.807	29.542	
335.676168980000	127.837	61.913	32.653	29.260	
335.683113430000	127.525	61.820	32.870	28.950	
335.690057870000	127.390	61.602	32.445	29.157	
335.697002310000	128.417	61.730	32.877	28.853	
335.703946760000	128.028	62.142	32.895	29.247	
335.710891200000	127.628	61.627	32.403	29.223	
335.717835650000	128.293	62.453	33.115	29.338	
335.724780090000	127.448	61.313	32.388	28.925	
335.731724540000	128.210	62.212	32.870	29.342	
335.738668980000	128.483	61.443	32.510	28.933	
335.745613430000	128.295	61.607	32.380	29.227	
335.752557870000	85.062	40.843	21.745	19.098	
335.759502310000	127.150	61.590	32.235	29.355	
335.766446760000	128.407	61.530	32.273	29.257	
335.773391200000	127.847	61.067	32.330	28.737	
335.780335650000	128.113	61.242	32.357	28.885	
335.787280090000	128.258	61.522	32.270	29.252	
335.794224540000	127.298	61.527	32.367	29.160	
335.801168980000	128.207	61.483	32.213	29.270	
335.808113430000	129.478	61.200	32.443	28.757	
335.815057870000	128.715	61.497	32.378	29.118	
335.822002310000	128.842	61.128	32.437	28.692	
335.828946760000	128.590	61.697	32.813	28.883	
335.835891200000	127.327	61.662	32.648	29.013	
335.842835650000	127.898	61.523	32.420	29.103	
335.849780090000	128.443	61.543	32.483	29.060	
335.856724540000	127.962	61.008	32.303	28.705	
335.863668980000	128.695	61.592	32.547	29.045	
335.870613430000	128.267	61.597	32.390	29.207	
335.877557870000	84.458	40.200	21.378	18.822	
335.884502310000	128.635	61.432	32.483	28.948	
335.891446760000	129.592	61.703	32.533	29.170	
335.898391200000	129.612	61.140	32.398	28.742	
335.905335650000	130.162	61.570	32.663	28.907	
335.912280090000	128.588	61.628	32.725	28.903	
335.919224540000	128.412	61.620	32.323	29.297	
335.926168980000	129.480	61.602	32.637	28.965	
335.933113430000	128.700	61.042	32.070	28.972	
335.940057870000	128.685	61.415	32.285	29.130	
335.947002310000	129.205	61.530	32.498	29.032	
335.953946760000	128.797	61.442	32.465	28.977	
335.960891200000	128.420	61.662	32.580	29.082	
335.967835650000	128.328	61.477	32.557	28.920	
335.974780090000	128.703	61.947	32.667	29.280	
335.981724540000	129.065	61.343	32.495	28.848	
335.988668980000	129.308	61.140	32.435	28.705	
335.995613430000	128.960	62.007	32.790	29.217	
336.002557870000	83.723	40.448	21.372	19.077	
336.009502310000	128.690	60.975	32.233	28.742	
336.016446760000	129.562	61.970	33.118	28.852	
336.023391200000	129.017	61.395	32.495	28.900	
336.030335650000	129.067	61.073	32.325	28.748	
336.037280090000	129.030	61.295	32.048	29.247	
336.044224540000	129.055	61.395	32.427	28.968	
336.051168980000	129.090	61.170	32.397	28.773	
336.058113430000	128.818	61.552	32.617	28.935	
336.065057870000	128.433	61.773	32.738	29.035	
336.072002310000	128.830	62.072	32.890	29.182	
336.078946760000	128.955	61.730	32.738	28.992	
336.085891200000	128.418	61.565	32.610	28.955	
336.092835650000	127.807	61.323	32.515	28.808	
336.099780090000	128.503	61.722	32.875	28.847	
336.106724540000	127.455	61.047	32.155	28.892	
336.113668980000	128.208	62.158	33.010	29.148	
336.120613430000	129.320	62.103	32.920	29.183	
336.127557870000	84.137	40.193	21.202	18.992	
336.134502310000	128.438	61.802	32.473	29.328	
336.141446760000	128.238	61.580	32.477	29.103	
336.148391200000	128.957	61.873	32.565	29.308	
336.155335650000	127.490	61.933	33.027	28.907	
336.162280090000	127.168	61.600	32.493	29.107	
336.169224540000	127.963	62.385	32.627	29.758	
336.176168980000	128.542	61.372	32.360	29.012	
336.183113430000	128.178	61.922	32.743	29.178	
336.190057870000	127.640	61.915	32.592	29.323	
336.197002310000	129.075	61.852	32.813	29.038	
336.203946760000	127.673	61.465	32.867	28.598	
336.210891200000	128.133	62.253	32.810	29.443	
336.217835650000	127.200	61.762	32.722	29.040	
336.224780090000	126.790	61.697	32.585	29.112	
336.231724540000	127.877	61.680	32.595	29.085	
336.238668980000	62.822	30.412	16.172	14.240	
336.245613430000	127.632	61.745	32.420	29.325	
336.252557870000	84.605	40.978	21.660	19.318	
336.259502310000	128.193	61.480	32.425	29.055	
336.266446760000	127.818	61.675	32.520	29.155	
336.273391200000	128.345	62.463	33.055	29.408	
336.280335650000	127.978	62.338	32.648	29.690	
336.287280090000	128.343	62.473	33.063	29.410	
336.294224540000	127.968	62.342	32.907	29.435	
336.301168980000	129.097	62.622	33.102	29.520	
336.308113430000	127.587	61.728	32.705	29.023	
336.315057870000	127.707	62.417	32.707	29.710	
336.322002310000	127.390	61.818	32.437	29.382	
336.328946760000	127.315	61.540	32.548	28.992	
336.335891200000	126.518	62.112	32.590	29.522	
336.342835650000	126.497	62.073	32.805	29.268	
336.349780090000	127.692	62.272	32.758	29.513	
336.356724540000	128.242	62.125	32.952	29.173	
336.363668980000	128.163	61.495	32.697	28.798	
336.370613430000	129.768	62.292	33.038	29.253	
336.377557870000	85.392	41.045	21.813	19.232	
336.384502310000	127.987	61.727	32.787	28.940	
336.391446760000	129.317	62.503	33.568	28.935	
336.398391200000	128.285	61.473	32.708	28.765	
336.405335650000	128.667	61.338	32.700	28.638	
336.412280090000	129.088	61.913	32.650	29.263	
336.419224540000	129.733	61.677	32.832	28.845	
336.426168980000	128.918	61.663	32.797	28.867	
336.433113430000	128.687	61.287	32.695	28.592	
336.440057870000	129.227	61.980	32.978	29.002	
336.447002310000	129.645	61.928	32.868	29.060	
336.453946760000	128.693	61.743	32.633	29.110	
336.460891200000	128.808	62.213	33.162	29.052	
336.467835650000	128.685	61.953	32.940	29.013	
336.474780090000	128.162	61.422	32.713	28.708	
336.481724540000	128.165	61.905	33.240	28.665	
336.488668980000	128.955	61.145	32.450	28.695	
336.495613430000	128.868	62.038	32.903	29.135	
336.502557870000	86.407	41.322	21.985	19.337	
336.509502310000	129.538	61.853	32.862	28.992	
336.516446760000	129.527	62.085	33.057	29.028	
336.523391200000	128.615	61.913	32.647	29.267	
336.530335650000	129.293	61.960	32.905	29.055	
336.537280090000	129.220	62.322	33.343	28.978	
336.544224540000	128.218	61.560	32.697	28.863	
336.551168980000	128.087	61.743	32.892	28.852	
336.558113430000	128.338	61.413	32.907	28.507	
336.565057870000	129.068	61.918	33.165	28.753	
336.572002310000	129.777	61.925	33.143	28.782	
336.578946760000	129.358	62.667	33.358	29.308	
336.585891200000	129.265	62.423	33.080	29.343	
336.592835650000	129.908	62.008	33.207	28.802	
336.599780090000	128.590	61.918	33.142	28.777	
336.606724540000	128.663	62.200	33.123	29.077	
336.613668980000	128.692	61.960	33.083	28.877	
336.620613430000	129.435	62.052	33.175	28.877	
336.627557870000	84.917	40.610	21.535	19.075	
336.634502310000	128.615	62.182	33.177	29.005	
336.641446760000	128.210	61.795	33.160	28.635	
336.648391200000	129.692	62.338	33.190	29.148	
336.655335650000	129.177	61.982	32.855	29.127	
336.662280090000	129.647	62.438	33.162	29.277	
336.669224540000	131.008	62.562	33.387	29.175	
336.676168980000	129.913	62.225	33.117	29.108	
336.683113430000	129.443	62.320	33.372	28.948	
336.690057870000	129.542	62.598	33.413	29.185	
336.697002310000	128.738	62.288	33.140	29.148	
336.703946760000	130.073	62.363	33.312	29.052	
336.710891200000	130.818	62.712	33.300	29.412	
336.717835650000	129.522	62.333	33.412	28.922	
336.724780090000	129.305	61.807	33.072	28.735	
336.731724540000	129.422	61.878	33.060	28.818	
336.738668980000	129.332	61.968	33.058	28.910	
336.745613430000	129.000	62.318	33.522	28.797	
336.752557870000	85.503	41.095	21.810	19.285	
336.759502310000	128.825	62.165	32.872	29.293	
336.766446760000	129.078	62.745	33.205	29.540	
336.773391200000	128.690	62.203	33.127	29.077	
336.780335650000	127.530	62.020	32.798	29.222	
336.787280090000	130.055	62.525	33.352	29.173	
336.794224540000	129.495	62.140	33.190	28.950	
336.801168980000	128.013	62.000	32.855	29.145	
336.808113430000	129.847	62.935	33.478	29.457	
336.815057870000	128.597	62.203	32.943	29.260	
336.822002310000	129.220	62.758	33.535	29.223	
336.828946760000	127.965	62.353	33.122	29.232	
336.835891200000	128.775	62.492	33.182	29.310	
336.842835650000	129.542	62.137	33.185	28.952	
336.849780090000	129.563	62.515	33.378	29.137	
336.856724540000	129.473	62.637	33.360	29.277	
336.863668980000	129.645	62.740	33.455	29.285	
336.870613430000	128.793	62.255	33.072	29.183	
336.877557870000	85.417	41.397	22.120	19.277	
336.884502310000	129.532	61.832	32.882	28.950	
336.891446760000	129.677	61.678	32.713	28.965	
336.898391200000	130.278	62.167	33.032	29.135	
336.905335650000	129.455	61.862	33.255	28.607	
336.912280090000	129.617	62.367	33.240	29.127	
336.919224540000	130.823	62.843	33.557	29.287	
336.926168980000	129.995	62.705	33.322	29.383	
336.933113430000	129.470	62.188	33.128	29.060	
336.940057870000	129.362	62.332	32.993	29.338	
336.947002310000	129.575	62.195	33.188	29.007	
336.953946760000	129.988	62.148	33.077	29.072	
336.960891200000	129.930	62.390	33.083	29.307	
336.967835650000	129.920	62.343	33.310	29.033	
336.974780090000	128.510	62.122	33.068	29.053	
336.981724540000	128.312	61.915	32.867	29.048	
336.988668980000	129.833	62.073	32.922	29.152	
336.995613430000	128.970	62.362	33.362	29.000	
337.002557870000	85.830	41.825	22.330	19.495	
337.009502310000	129.757	62.432	33.157	29.275	
337.016446760000	130.093	63.028	33.885	29.143	
337.023391200000	128.968	62.463	33.432	29.032	
337.030335650000	130.483	63.368	33.388	29.980	
337.037280090000	129.745	62.705	33.312	29.393	
337.044224540000	129.980	62.487	33.140	29.347	
337.051168980000	130.088	62.793	33.713	29.080	
337.058113430000	129.620	63.087	33.438	29.648	
337.065057870000	129.537	62.685	33.327	29.358	
337.072002310000	129.762	62.263	33.048	29.215	
337.078946760000	129.425	62.315	32.762	29.553	
337.085891200000	129.700	62.148	33.022	29.127	
337.092835650000	130.417	62.803	33.837	28.967	
337.099780090000	129.873	62.432	33.370	29.062	
337.106724540000	130.065	62.583	33.213	29.370	
337.113668980000	128.775	62.287	32.962	29.325	
337.120613430000	128.915	62.627	33.357	29.270	
337.127557870000	85.712	41.542	22.153	19.388	
337.134502310000	130.918	62.447	33.285	29.162	
337.141446760000	130.000	62.275	33.548	28.727	
337.148391200000	129.807	62.458	33.425	29.033	
337.155335650000	129.393	62.655	33.297	29.358	
337.162280090000	129.535	62.247	32.847	29.400	
337.169224540000	129.957	63.108	33.608	29.500	
337.176168980000	128.138	62.632	33.263	29.368	
337.183113430000	129.360	63.350	33.550	29.800	
337.190057870000	129.547	63.183	33.642	29.542	
337.197002310000	128.807	61.917	32.945	28.972	
337.203946760000	130.040	62.908	33.297	29.612	
337.210891200000	130.338	63.570	33.983	29.587	
337.217835650000	129.827	63.038	33.715	29.323	
337.224780090000	128.922	62.638	33.183	29.455	
337.231724540000	129.528	62.665	33.395	29.270	
337.238668980000	129.080	62.142	33.235	28.907	
337.245613430000	128.878	62.388	33.142	29.247	
337.252557870000	85.237	41.408	21.895	19.513	
337.259502310000	129.223	62.377	32.935	29.442	
337.266446760000	129.960	63.007	33.267	29.740	
337.273391200000	130.363	62.720	33.417	29.303	
337.280335650000	129.198	62.483	33.030	29.453	
337.287280090000	130.090	62.850	33.283	29.567	
337.294224540000	129.505	62.473	33.245	29.228	
337.301168980000	129.283	62.235	32.897	29.338	
337.308113430000	131.215	63.417	33.763	29.653	
337.315057870000	129.410	62.830	33.370	29.460	
337.322002310000	130.142	63.193	33.508	29.685	
337.328946760000	129.613	62.830	33.520	29.310	
337.335891200000	130.252	63.640	33.975	29.665	
337.342835650000	129.408	62.982	33.382	29.600	
337.349780090000	129.440	62.895	33.525	29.370	
337.356724540000	129.817	63.073	33.653	29.420	
337.363668980000	129.360	63.098	33.595	29.503	
337.370613430000	129.418	62.717	33.060	29.657	
337.377557870000	85.105	41.503	22.140	19.363	
337.384502310000	128.882	62.448	33.233	29.215	
337.391446760000	128.960	62.897	33.508	29.388	
337.398391200000	128.107	62.772	33.548	29.223	
337.405335650000	127.940	62.403	32.993	29.410	
337.412280090000	128.612	62.407	33.285	29.122	
337.419224540000	129.450	63.277	33.947	29.330	
337.426168980000	129.485	63.025	33.565	29.460	
337.433113430000	128.518	63.203	33.550	29.653	
337.440057870000	129.150	62.663	33.863	28.800	
337.447002310000	130.132	62.730	33.517	29.213	
337.453946760000	129.742	62.680	33.583	29.097	
337.460891200000	129.087	63.002	33.665	29.337	
337.467835650000	128.283	62.842	33.618	29.223	
337.474780090000	128.963	63.133	33.740	29.393	
337.481724540000	128.918	63.340	33.698	29.642	
337.488668980000	129.712	63.220	33.570	29.650	
337.495613430000	129.225	63.530	33.657	29.873	
337.502557870000	84.985	41.762	22.188	19.573	
337.509502310000	128.330	63.338	33.618	29.720	
337.516446760000	128.945	62.852	33.445	29.407	
337.523391200000	129.138	62.978	33.508	29.470	
337.530335650000	129.458	63.007	33.732	29.275	
337.537280090000	129.240	63.668	33.900	29.768	
337.544224540000	127.605	62.993	33.737	29.257	
337.551168980000	128.593	63.572	33.902	29.670	
337.558113430000	129.438	63.823	34.137	29.687	
337.565057870000	129.163	63.533	34.113	29.420	
337.572002310000	128.868	63.495	33.843	29.652	
337.578946760000	130.543	63.225	33.747	29.478	
337.585891200000	130.733	62.880	33.405	29.475	
337.592835650000	129.478	63.398	33.917	29.482	
337.599780090000	129.730	62.667	33.750	28.917	
337.606724540000	130.820	63.175	33.900	29.275	
337.613668980000	129.967	63.170	33.750	29.420	
337.620613430000	129.828	63.593	33.875	29.718	
337.627557870000	85.727	42.000	22.478	19.522	
337.634502310000	129.448	62.960	33.500	29.460	
337.641446760000	129.350	63.020	33.920	29.100	
337.648391200000	129.433	62.915	33.750	29.165	
337.655335650000	129.885	63.547	33.823	29.723	
337.662280090000	130.075	63.657	34.155	29.502	
337.669224540000	129.410	62.888	33.472	29.417	
337.676168980000	129.077	64.005	34.135	29.870	
337.683113430000	129.943	64.035	34.285	29.750	
337.690057870000	128.210	63.155	33.437	29.718	
337.697002310000	128.620	63.945	33.827	30.118	
337.703946760000	128.723	62.843	33.320	29.523	
337.710891200000	129.495	63.042	33.410	29.632	
337.717835650000	130.342	63.707	33.795	29.912	
337.724780090000	130.663	63.722	33.882	29.840	
337.731724540000	128.868	63.098	33.655	29.443	
337.738668980000	129.162	63.243	33.798	29.445	
337.745613430000	129.193	63.375	33.605	29.770	
337.752557870000	85.452	42.087	22.295	19.792	
337.759502310000	129.100	62.985	33.905	29.080	
337.766446760000	129.390	62.860	33.223	29.637	
337.773391200000	129.500	63.595	33.828	29.767	
337.780335650000	129.342	63.727	33.600	30.127	
337.787280090000	130.198	63.662	33.848	29.813	
337.794224540000	130.590	63.660	33.967	29.693	
337.801168980000	129.473	63.797	33.888	29.908	
337.808113430000	128.890	63.765	34.010	29.755	
337.815057870000	128.983	63.438	33.542	29.897	
337.822002310000	129.187	63.462	33.807	29.655	
337.828946760000	127.780	63.020	33.452	29.568	
337.835891200000	128.002	63.265	33.840	29.425	
337.842835650000	128.123	63.845	34.115	29.730	
337.849780090000	128.158	63.767	34.092	29.675	
337.856724540000	128.443	63.885	34.147	29.738	
337.863668980000	126.330	63.373	33.698	29.675	
337.870613430000	127.653	63.673	34.142	29.532	
337.877557870000	84.295	42.078	22.387	19.692	
337.884502310000	127.340	63.495	33.568	29.927	
337.891446760000	127.735	63.753	33.958	29.795	
337.898391200000	127.210	63.647	33.768	29.878	
337.905335650000	126.922	63.698	33.723	29.975	
337.912280090000	126.865	63.740	33.747	29.993	
337.919224540000	126.652	63.312	33.535	29.777	
337.926168980000	128.513	63.725	33.910	29.815	
337.933113430000	128.302	63.743	33.893	29.850	
337.940057870000	128.335	63.765	33.812	29.953	
337.947002310000	127.898	63.442	34.005	29.437	
337.953946760000	127.333	64.137	34.097	30.040	
337.960891200000	127.445	63.655	33.870	29.785	
337.967835650000	128.545	63.715	33.898	29.817	
337.974780090000	128.357	63.378	33.502	29.877	
337.981724540000	128.213	63.750	33.802	29.948	
337.988668980000	128.080	63.425	33.495	29.930	
337.995613430000	129.313	64.288	34.397	29.892	
338.002557870000	83.967	41.810	22.065	19.745	
338.009502310000	129.678	64.137	33.983	30.153	
338.016446760000	129.180	64.227	34.265	29.962	
338.023391200000	129.292	63.435	34.008	29.427	
338.030335650000	130.355	63.867	34.025	29.842	
338.037280090000	129.605	63.977	33.830	30.147	
338.044224540000	129.283	64.003	34.312	29.692	
338.051168980000	129.460	63.862	33.900	29.962	
338.058113430000	129.387	64.408	34.212	30.197	
338.065057870000	128.460	64.073	34.227	29.847	
338.072002310000	130.455	63.593	34.217	29.377	
338.078946760000	129.793	63.973	33.863	30.110	
338.085891200000	129.787	63.957	34.200	29.757	
338.092835650000	128.907	63.412	33.642	29.770	
338.099780090000	129.602	63.847	34.163	29.683	
338.106724540000	129.060	63.598	33.797	29.802	
338.113668980000	129.432	64.095	33.963	30.132	
338.120613430000	129.072	63.607	33.742	29.865	
338.127557870000	85.318	42.073	22.542	19.532	
338.134502310000	128.337	63.153	33.702	29.452	
338.141446760000	128.925	63.935	33.943	29.992	
338.148391200000	129.012	64.175	34.048	30.127	
338.155335650000	128.252	63.675	34.102	29.573	
338.162280090000	128.578	64.467	34.365	30.102	
338.169224540000	128.610	64.112	34.182	29.930	
338.176168980000	128.188	63.587	33.342	30.245	
338.183113430000	128.550	64.272	34.082	30.190	
338.190057870000	128.037	63.978	33.823	30.155	
338.197002310000	129.200	63.920	33.857	30.063	
338.203946760000	128.345	64.340	34.068	30.272	
338.210891200000	127.918	64.320	34.275	30.045	
338.217835650000	127.898	64.422	34.037	30.385	
338.224780090000	128.680	64.807	34.558	30.248	
338.231724540000	127.595	64.472	34.408	30.063	
338.238668980000	128.372	64.482	34.243	30.238	
338.245613430000	128.332	64.190	33.990	30.200	
338.252557870000	85.597	42.718	22.662	20.057	
338.259502310000	128.190	64.305	34.170	30.135	
338.266446760000	129.413	64.555	34.140	30.415	
338.273391200000	129.368	64.308	33.935	30.373	
338.280335650000	127.612	64.057	33.655	30.402	
338.287280090000	128.012	64.247	34.390	29.857	
338.296261570000	76.110	38.352	20.352	18.000	
338.303206020000	128.752	63.680	33.883	29.797	
338.310150460000	127.167	64.128	33.757	30.372	
338.317094910000	127.608	64.122	34.070	30.052	
338.324039350000	128.308	65.017	34.337	30.680	
338.330983800000	127.558	64.313	33.972	30.342	
338.337928240000	128.603	64.418	34.338	30.080	
338.344872690000	128.338	64.377	34.310	30.067	
338.351817130000	127.867	63.567	33.878	29.688	
338.358761570000	127.912	64.237	34.030	30.207	
338.365706020000	127.968	63.995	33.942	30.053	
338.372650460000	127.502	63.990	34.067	29.923	
338.379594910000	83.857	41.985	22.213	19.772	
338.386539350000	127.983	64.153	34.055	30.098	
338.393483800000	127.637	64.858	34.337	30.522	
338.400428240000	128.842	64.373	34.118	30.255	
338.407372690000	128.728	63.900	33.875	30.025	
338.414317130000	129.925	63.802	33.948	29.853	
338.421261570000	129.938	64.095	34.185	29.910	
338.428206020000	129.703	64.573	34.333	30.240	
338.435150460000	128.160	63.592	33.893	29.698	
338.442094910000	129.537	64.348	34.095	30.253	
338.449039350000	128.773	63.882	34.023	29.858	
338.455983800000	128.665	63.570	33.858	29.712	
338.462928240000	129.250	64.493	34.332	30.162	
338.469872690000	128.905	64.085	34.190	29.895	
338.476817130000	129.220	64.022	34.280	29.742	
338.483761570000	129.177	63.915	33.933	29.982	
338.490706020000	129.795	64.533	34.655	29.878	
338.497650460000	128.847	64.088	33.897	30.192	
338.504594910000	85.518	42.437	22.650	19.787	
338.511539350000	128.677	63.770	33.987	29.783	
338.518483800000	129.988	63.660	34.072	29.588	
338.525428240000	130.055	64.163	34.002	30.162	
338.532372690000	128.652	63.162	33.453	29.708	
338.539317130000	129.513	63.912	33.888	30.023	
338.546261570000	129.890	63.845	34.145	29.700	
338.553206020000	129.897	63.665	34.257	29.408	
338.560150460000	129.122	64.137	34.253	29.883	
338.567094910000	129.380	64.298	34.250	30.048	
338.574039350000	129.087	63.643	33.903	29.740	
338.580983800000	129.655	63.883	34.242	29.642	
338.587928240000	129.723	63.417	33.852	29.565	
338.594872690000	129.752	63.580	34.008	29.572	
338.601817130000	130.413	63.348	33.888	29.460	
338.608761570000	130.895	63.890	34.390	29.500	
338.615706020000	130.455	63.850	34.275	29.575	
338.622650460000	129.743	64.003	34.468	29.535	
338.629594910000	85.833	42.393	22.690	19.703	
338.636539350000	129.975	63.783	34.132	29.652	
338.643483800000	126.798	62.003	33.233	28.770	
338.650428240000	130.300	63.848	34.265	29.583	
338.657372690000	129.585	63.852	33.862	29.990	
338.664317130000	128.153	63.662	33.740	29.922	
338.671261570000	126.182	62.850	33.622	29.228	
338.678206020000	129.427	63.765	33.688	30.077	
338.685150460000	129.535	64.227	34.338	29.888	
338.692094910000	130.773	65.137	34.607	30.530	
338.699039350000	129.242	64.022	34.267	29.755	
338.705983800000	128.910	64.013	33.858	30.155	
338.712928240000	129.718	64.383	34.523	29.860	
338.719872690000	130.027	63.872	33.900	29.972	
338.726817130000	129.962	63.697	33.975	29.722	
338.735497690000	75.319	37.305	19.939	17.367	
338.742442130000	128.755	64.043	34.293	29.750	
338.749386570000	130.400	64.340	34.563	29.777	
338.756331020000	86.612	42.553	22.635	19.918	
338.763275460000	130.140	63.667	33.937	29.730	
338.770219910000	129.103	63.472	33.860	29.612	
338.777164350000	129.997	63.482	33.963	29.518	
338.784108800000	129.505	63.398	33.955	29.443	
338.791053240000	130.632	64.570	34.355	30.215	
338.797997690000	129.242	64.025	34.403	29.622	
338.804942130000	129.920	64.013	34.348	29.665	
338.811886570000	129.808	63.717	33.838	29.878	
338.818831020000	129.978	64.258	34.597	29.662	
338.825775460000	129.758	63.617	34.260	29.357	
338.832719910000	128.658	63.890	34.070	29.820	
338.839664350000	130.587	64.317	34.088	30.228	
338.846608800000	130.185	63.762	34.072	29.690	
338.853553240000	130.688	64.197	34.263	29.933	
338.860497690000	130.693	63.835	34.430	29.405	
338.867442130000	64.217	30.953	16.718	14.235	
338.874386570000	131.047	63.830	34.278	29.552	
338.881331020000	85.423	42.165	22.942	19.223	
